# Best-fit normalized data and profile from VoigtFit
# column 1 : Wavelength
# column 2 : Normalized flux
# column 3 : Normalized error
# column 4 : Best-fit profile
# column 5 : Pixel mask, 1=included, 0=excluded
1154.898   0.5755   0.2671   0.9966   0
1154.958   0.6835   0.2766   0.9957   0
1155.018   0.7233   0.2783   0.9949   0
1155.078   0.6206   0.2707   0.9943   0
1155.138   0.7207   0.2772   0.9938   0
1155.197   0.6705   0.2740   0.9936   0
1155.257   0.8619   0.2872   0.9934   0
1155.317   0.7795   0.2789   0.9934   0
1155.377   0.6841   0.2707   0.9933   0
1155.437   0.7067   0.2728   0.9933   0
1155.496   0.5156   0.2567   0.9933   0
1155.556   0.5397   0.2595   0.9933   0
1155.616   0.6791   0.2710   0.9932   0
1155.676   0.7735   0.2755   0.9932   0
1155.736   0.7963   0.2770   0.9932   0
1155.796   0.5139   0.2554   0.9932   0
1155.855   0.6069   0.2639   0.9932   0
1155.915   0.6066   0.2634   0.9932   0
1155.975   0.5820   0.2620   0.9931   0
1156.035   0.5340   0.2582   0.9931   0
1156.095   0.4878   0.2532   0.9931   0
1156.154   0.4639   0.2525   0.9931   0
1156.214   0.6957   0.2682   0.9931   0
1156.274   0.6506   0.2656   0.9931   0
1156.334   0.7657   0.2735   0.9931   0
1156.394   0.8586   0.2801   0.9930   0
1156.454   0.7426   0.2723   0.9930   0
1156.513   0.9980   0.2892   0.9930   0
1156.573   0.7408   0.2719   0.9930   0
1156.633   0.8793   0.2809   0.9930   0
1156.693   0.8787   0.2801   0.9930   0
1156.753   0.7153   0.2695   0.9930   0
1156.812   0.8147   0.2767   0.9929   0
1156.872   0.5937   0.2617   0.9929   0
1156.932   0.7781   0.2777   0.9929   0
1156.992   0.8541   0.2825   0.9929   0
1157.052   0.9893   0.2913   0.9929   0
1157.112   0.8427   0.2799   0.9929   0
1157.171   0.8249   0.2803   0.9928   0
1157.231   0.9164   0.2856   0.9928   0
1157.291   1.0449   0.2938   0.9928   0
1157.351   0.5706   0.2574   0.9928   0
1157.411   0.5481   0.2553   0.9928   0
1157.470   0.6610   0.2630   0.9928   0
1157.530   0.8693   0.2783   0.9928   0
1157.590   0.7082   0.2659   0.9927   0
1157.650   0.7541   0.2703   0.9927   0
1157.710   0.3864   0.2417   0.9927   0
1157.770   0.4770   0.2497   0.9927   0
1157.829   0.8438   0.2768   0.9927   0
1157.889   0.7050   0.2661   0.9927   0
1157.949   0.9583   0.2828   0.9926   0
1158.009   0.5897   0.2577   0.9926   0
1158.069   0.7935   0.2722   0.9926   0
1158.129   0.9918   0.3002   0.9926   0
1158.188   0.9092   0.3230   0.9926   0
1158.248   0.6632   0.3028   0.9926   0
1158.308   0.7549   0.3100   0.9926   0
1158.368   0.7239   0.3093   0.9925   0
1158.428   0.6638   0.3033   0.9925   0
1158.487   0.5642   0.2895   0.9925   0
1158.547   0.8353   0.2749   0.9925   0
1158.607   0.7449   0.2674   0.9925   0
1158.667   0.5851   0.2558   0.9925   0
1158.727   0.7434   0.2668   0.9924   0
1158.786   0.6524   0.2605   0.9924   0
1158.846   0.4926   0.2484   0.9924   0
1158.906   0.6290   0.2593   0.9924   0
1158.966   0.6743   0.2625   0.9924   0
1159.026   0.6062   0.2568   0.9924   0
1159.086   0.7419   0.2665   0.9923   0
1159.146   0.5844   0.2546   0.9923   0
1159.205   0.3121   0.2333   0.9923   0
1159.265   0.5841   0.2552   0.9923   0
1159.325   0.5833   0.2555   0.9923   0
1159.385   0.9231   0.2771   0.9923   0
1159.445   0.3811   0.2380   0.9922   0
1159.504   0.5831   0.2546   0.9922   0
1159.564   0.5831   0.2545   0.9922   0
1159.624   0.8077   0.2703   0.9922   0
1159.684   0.5600   0.2527   0.9922   0
1159.744   0.5601   0.2527   0.9922   0
1159.803   0.4697   0.2453   0.9921   0
1159.863   0.6301   0.2581   0.9921   0
1159.923   0.6217   0.2582   0.9921   0
1159.983   0.7530   0.2687   0.9921   0
1160.043   0.6397   0.2609   0.9921   0
1160.103   0.7476   0.2668   0.9920   0
1160.162   0.5842   0.2547   0.9920   0
1160.222   0.8446   0.2756   0.9920   0
1160.282   0.8729   0.2778   0.9920   0
1160.342   0.6214   0.2596   0.9920   0
1160.402   0.7255   0.2666   0.9920   0
1160.462   0.7468   0.2681   0.9919   0
1160.521   0.7710   0.2699   0.9919   0
1160.581   0.8654   0.2571   0.9919   0
1160.641   0.7751   0.2702   0.9919   0
1160.701   0.9296   0.2800   0.9919   0
1160.761   0.7320   0.2662   0.9919   0
1160.820   0.7142   0.2626   0.9918   0
1160.880   0.5330   0.2500   0.9918   0
1160.940   0.7114   0.2623   0.9918   0
1161.000   0.8454   0.2715   0.9918   0
1161.060   0.6289   0.2642   0.9918   0
1161.120   0.6817   0.3005   0.9917   0
1161.179   0.7115   0.3014   0.9917   0
1161.239   0.7100   0.3013   0.9917   0
1161.299   0.7995   0.3085   0.9917   0
1161.359   0.9478   0.3211   0.9917   0
1161.419   1.0360   0.3268   0.9916   0
1161.478   0.5961   0.2525   0.9916   0
1161.538   0.8187   0.2680   0.9916   0
1161.598   0.7075   0.2610   0.9916   0
1161.658   0.7064   0.2612   0.9916   0
1161.718   0.6630   0.2580   0.9916   0
1161.778   0.5966   0.2527   0.9915   0
1161.837   0.6853   0.2587   0.9915   0
1161.897   0.7298   0.2619   0.9915   0
1161.957   0.7951   0.2666   0.9915   0
1162.017   0.7734   0.2655   0.9915   0
1162.077   0.7939   0.2663   0.9914   0
1162.136   0.6386   0.2554   0.9914   0
1162.196   0.6603   0.2567   0.9914   0
1162.256   0.9277   0.2747   0.9914   0
1162.316   0.9273   0.2750   0.9914   0
1162.376   0.4391   0.2395   0.9913   0
1162.436   0.6159   0.2534   0.9913   0
1162.495   0.8144   0.2674   0.9913   0
1162.555   0.8371   0.2695   0.9913   0
1162.615   0.9450   0.2750   0.9913   0
1162.675   0.6372   0.2551   0.9912   0
1162.735   0.8343   0.2685   0.9912   0
1162.794   0.7022   0.2589   0.9912   0
1162.854   0.5689   0.2499   0.9912   0
1162.914   0.5027   0.2438   0.9912   0
1162.974   0.7473   0.2619   0.9911   0
1163.034   0.4149   0.2373   0.9911   0
1163.094   0.6793   0.2723   0.9911   0
1163.153   0.6429   0.2948   0.9911   0
1163.213   0.6131   0.2924   0.9910   0
1163.273   0.6181   0.2947   0.9910   0
1163.333   0.4675   0.2822   0.9910   0
1163.393   0.4669   0.2808   0.9910   0
1163.453   0.7507   0.2991   0.9910   0
1163.512   0.5773   0.2520   0.9909   0
1163.572   1.0415   0.2840   0.9909   0
1163.632   0.6418   0.2558   0.9909   0
1163.692   0.7488   0.2633   0.9909   0
1163.752   0.7334   0.2616   0.9909   0
1163.811   0.6786   0.2570   0.9908   0
1163.871   0.8321   0.2680   0.9908   0
1163.931   0.6788   0.2558   0.9908   0
1163.991   0.7012   0.2589   0.9908   0
1164.051   0.6999   0.2572   0.9907   0
1164.110   0.8093   0.2656   0.9907   0
1164.170   0.8098   0.2665   0.9907   0
1164.230   0.6569   0.2557   0.9907   0
1164.290   0.7221   0.2591   0.9907   0
1164.350   0.8972   0.2711   0.9906   0
1164.410   0.7650   0.2622   0.9906   0
1164.469   0.5014   0.2420   0.9906   0
1164.529   0.7842   0.2625   0.9906   0
1164.589   0.8714   0.2698   0.9905   0
1164.649   0.8716   0.2686   0.9905   0
1164.709   0.7194   0.2586   0.9905   0
1164.769   0.5453   0.2451   0.9905   0
1164.828   0.7621   0.2614   0.9905   0
1164.888   0.5654   0.2469   0.9904   0
1164.948   0.7826   0.2631   0.9904   0
1165.008   0.7600   0.2607   0.9904   0
1165.068   0.8912   0.2700   0.9904   0
1165.127   0.7823   0.2629   0.9903   0
1165.187   0.8661   0.2685   0.9903   0
1165.247   0.9403   0.2725   0.9903   0
1165.307   0.7971   0.2653   0.9903   0
1165.367   0.9790   0.2778   0.9902   0
1165.427   0.7929   0.2650   0.9902   0
1165.486   0.9113   0.2723   0.9902   0
1165.546   0.8881   0.2719   0.9902   0
1165.606   1.1429   0.2893   0.9902   0
1165.666   0.9050   0.2724   0.9901   0
1165.726   0.9355   0.2731   0.9901   0
1165.786   0.8949   0.2689   0.9901   0
1165.845   0.7780   0.2612   0.9901   0
1165.905   0.9076   0.2696   0.9900   0
1165.965   0.8214   0.2628   0.9900   0
1166.025   0.8639   0.2660   0.9900   0
1166.085   0.7786   0.2607   0.9900   0
1166.144   0.8709   0.2821   0.9899   0
1166.204   0.8058   0.3027   0.9899   0
1166.264   0.9773   0.3153   0.9899   0
1166.324   0.8032   0.3026   0.9899   0
1166.384   0.6874   0.2933   0.9898   0
1166.443   0.9748   0.3161   0.9898   0
1166.503   0.5149   0.2779   0.9898   0
1166.563   0.7073   0.2556   0.9898   0
1166.623   0.8581   0.2649   0.9897   0
1166.683   0.8153   0.2618   0.9897   0
1166.743   0.6855   0.2539   0.9897   0
1166.802   0.7921   0.2606   0.9897   0
1166.862   0.6202   0.2484   0.9896   0
1166.922   0.7258   0.2557   0.9896   0
1166.982   0.7034   0.2539   0.9896   0
1167.042   0.7456   0.2568   0.9895   0
1167.102   0.5746   0.2446   0.9895   0
1167.161   0.5085   0.2382   0.9895   0
1167.221   1.0000   0.2731   0.9895   0
1167.281   0.5285   0.2405   0.9894   0
1167.341   0.5070   0.2391   0.9894   0
1167.401   0.5710   0.2439   0.9894   0
1167.460   0.4643   0.2353   0.9894   0
1167.520   0.5499   0.2416   0.9893   0
1167.580   0.5913   0.2447   0.9893   0
1167.640   0.5497   0.2419   0.9893   0
1167.700   0.5923   0.2449   0.9893   0
1167.760   0.3992   0.2301   0.9892   0
1167.819   0.8047   0.2595   0.9892   0
1167.879   0.7617   0.2566   0.9892   0
1167.939   0.5698   0.2431   0.9891   0
1167.999   0.4416   0.2333   0.9891   0
1168.059   0.5260   0.2400   0.9891   0
1168.118   0.5685   0.2424   0.9891   0
1168.178   0.6110   0.2460   0.9890   0
1168.238   0.4428   0.2332   0.9890   0
1168.298   0.6802   0.2516   0.9890   0
1168.358   0.4863   0.2377   0.9889   0
1168.418   0.7089   0.2549   0.9889   0
1168.477   0.7992   0.2609   0.9889   0
1168.537   0.7079   0.2552   0.9889   0
1168.597   0.5993   0.2473   0.9888   0
1168.657   0.6568   0.2520   0.9888   0
1168.717   0.7304   0.2582   0.9888   0
1168.776   0.5501   0.2448   0.9887   0
1168.836   0.4706   0.2368   0.9887   0
1168.896   0.6246   0.2490   0.9887   0
1168.956   0.7343   0.2561   0.9887   0
1169.016   0.5767   0.2447   0.9886   0
1169.076   0.6871   0.2530   0.9886   0
1169.135   0.8755   0.2663   0.9886   0
1169.195   0.5985   0.2446   0.9885   0
1169.255   0.4631   0.2333   0.9885   0
1169.315   0.5863   0.2418   0.9885   0
1169.375   0.5651   0.2406   0.9884   0
1169.434   0.5865   0.2423   0.9884   0
1169.494   0.5453   0.2400   0.9884   0
1169.554   0.7563   0.2534   0.9884   0
1169.614   0.7130   0.2514   0.9883   0
1169.674   0.7759   0.2553   0.9883   0
1169.734   0.5436   0.2389   0.9883   0
1169.793   0.5852   0.2416   0.9882   0
1169.853   0.6049   0.2424   0.9882   0
1169.913   0.5821   0.2412   0.9882   0
1169.973   0.6232   0.2445   0.9881   0
1170.033   0.6436   0.2456   0.9881   0
1170.093   0.6658   0.2470   0.9881   0
1170.152   0.5403   0.2379   0.9880   0
1170.212   0.5402   0.2377   0.9880   0
1170.272   0.6441   0.2445   0.9880   0
1170.332   0.7277   0.2512   0.9879   0
1170.392   0.7479   0.2519   0.9879   0
1170.451   0.5601   0.2394   0.9879   0
1170.511   0.5994   0.2412   0.9878   0
1170.571   0.4129   0.2270   0.9878   0
1170.631   0.4958   0.2338   0.9878   0
1170.691   0.5584   0.2376   0.9877   0
1170.750   0.5362   0.2365   0.9877   0
1170.810   0.6614   0.2459   0.9877   0
1170.870   0.5372   0.2369   0.9876   0
1170.930   0.2869   0.2169   0.9876   0
1170.990   0.5173   0.2351   0.9876   0
1171.050   0.3502   0.2213   0.9875   0
1171.109   0.5151   0.2344   0.9875   0
1171.169   0.4528   0.2306   0.9875   0
1171.229   0.3901   0.2251   0.9874   0
1171.289   0.5367   0.2363   0.9874   0
1171.349   0.4726   0.2323   0.9874   0
1171.409   0.3696   0.2238   0.9873   0
1171.468   0.5980   0.2406   0.9873   0
1171.528   0.4945   0.2326   0.9873   0
1171.588   0.6852   0.2476   0.9872   0
1171.648   0.5310   0.2371   0.9872   0
1171.708   0.4958   0.2347   0.9872   0
1171.767   0.6095   0.2442   0.9871   0
1171.827   0.5442   0.2399   0.9871   0
1171.887   0.2567   0.2155   0.9871   0
1171.947   0.4750   0.2332   0.9870   0
1172.007   0.4097   0.2279   0.9870   0
1172.067   0.5178   0.2374   0.9870   0
1172.126   0.4199   0.2280   0.9869   0
1172.186   0.3728   0.2240   0.9869   0
1172.246   0.3065   0.2179   0.9868   0
1172.306   0.5764   0.2391   0.9868   0
1172.366   0.4924   0.2327   0.9868   0
1172.426   0.4298   0.2280   0.9867   0
1172.485   0.4499   0.2293   0.9867   0
1172.545   0.5543   0.2372   0.9867   0
1172.605   0.6785   0.2472   0.9866   0
1172.665   0.4714   0.2309   0.9866   0
1172.725   0.4093   0.2262   0.9865   0
1172.784   0.3680   0.2232   0.9865   0
1172.844   0.3477   0.2219   0.9865   0
1172.904   0.5345   0.2356   0.9864   0
1172.964   0.4308   0.2278   0.9864   0
1173.024   0.6175   0.2414   0.9864   0
1173.083   0.4318   0.2285   0.9863   0
1173.143   0.6597   0.2461   0.9863   0
1173.203   0.5766   0.2388   0.9862   0
1173.263   0.5570   0.2372   0.9862   0
1173.323   0.4940   0.2330   0.9862   0
1173.383   0.4119   0.2258   0.9861   0
1173.442   0.2460   0.2133   0.9861   0
1173.502   0.5367   0.2363   0.9860   0
1173.562   0.4742   0.2315   0.9860   0
1173.622   0.5013   0.2340   0.9860   0
1173.682   0.4259   0.2290   0.9859   0
1173.742   0.3449   0.2226   0.9859   0
1173.801   0.4765   0.2335   0.9858   0
1173.861   0.4562   0.2320   0.9858   0
1173.921   0.4305   0.2304   0.9858   0
1173.981   0.3890   0.2270   0.9857   0
1174.041   0.4758   0.2344   0.9857   0
1174.100   0.6021   0.2441   0.9856   0
1174.160   0.3966   0.2268   0.9856   0
1174.220   0.2859   0.2161   0.9855   0
1174.280   0.4726   0.2318   0.9855   0
1174.340   0.3899   0.2254   0.9855   0
1174.400   0.4324   0.2287   0.9854   0
1174.459   0.4117   0.2273   0.9854   0
1174.519   0.3692   0.2233   0.9853   0
1174.579   0.5563   0.2376   0.9853   0
1174.639   0.4309   0.2280   0.9852   0
1174.699   0.4327   0.2289   0.9852   0
1174.758   0.4537   0.2312   0.9852   0
1174.818   0.3273   0.2205   0.9851   0
1174.878   0.4103   0.2267   0.9851   0
1174.938   0.2858   0.2165   0.9850   0
1174.998   0.3681   0.2241   0.9850   0
1175.058   0.2444   0.2133   0.9849   0
1175.117   0.2647   0.2154   0.9849   0
1175.177   0.4523   0.2314   0.9848   0
1175.237   0.3897   0.2255   0.9848   0
1175.297   0.3692   0.2238   0.9848   0
1175.357   0.5560   0.2390   0.9847   0
1175.417   0.4519   0.2304   0.9847   0
1175.476   0.4936   0.2345   0.9846   0
1175.536   0.3903   0.2264   0.9846   0
1175.596   0.4101   0.2280   0.9845   0
1175.656   0.3884   0.2265   0.9845   0
1175.716   0.3680   0.2246   0.9844   0
1175.775   0.3682   0.2248   0.9844   0
1175.835   0.4518   0.2314   0.9843   0
1175.895   0.3463   0.2228   0.9843   0
1175.955   0.4511   0.2316   0.9842   0
1176.015   0.2220   0.2126   0.9842   0
1176.074   0.2439   0.2143   0.9841   0
1176.134   0.2653   0.2161   0.9841   0
1176.194   0.1404   0.2052   0.9841   0
1176.254   0.2243   0.2125   0.9840   0
1176.314   0.4127   0.2290   0.9840   0
1176.374   0.3504   0.2245   0.9839   0
1176.433   0.3727   0.2250   0.9839   0
1176.493   0.1209   0.2038   0.9838   0
1176.553   0.3508   0.2237   0.9838   0
1176.613   0.3939   0.2272   0.9837   0
1176.673   0.2702   0.2178   0.9837   0
1176.733   0.3829   0.2278   0.9836   0
1176.792   0.2818   0.2194   0.9836   0
1176.852   0.3287   0.2242   0.9835   0
1176.912   0.2419   0.2169   0.9835   0
1176.972   0.2639   0.2188   0.9834   0
1177.032   0.2854   0.2208   0.9833   0
1177.091   0.1998   0.2134   0.9833   0
1177.151   0.4123   0.2342   0.9832   0
1177.211   0.2921   0.2229   0.9832   0
1177.271   0.3984   0.2307   0.9831   0
1177.331   0.4151   0.2320   0.9831   0
1177.391   0.3049   0.2225   0.9830   0
1177.450   0.3906   0.2305   0.9830   0
1177.510   0.3459   0.2261   0.9829   0
1177.570   0.1684   0.2099   0.9829   0
1177.630   0.3335   0.2240   0.9828   0
1177.690   0.5004   0.2374   0.9828   0
1177.750   0.5415   0.2399   0.9827   0
1177.809   0.4569   0.2335   0.9827   0
1177.869   0.5625   0.2418   0.9826   0
1177.929   0.5625   0.2417   0.9825   0
1177.989   0.4592   0.2344   0.9825   0
1178.049   0.3318   0.2240   0.9824   0
1178.108   0.4169   0.2312   0.9824   0
1178.168   0.3748   0.2281   0.9823   0
1178.228   0.5855   0.2449   0.9823   0
1178.288   0.4591   0.2352   0.9822   0
1178.348   0.5012   0.2378   0.9821   0
1178.407   0.6841   0.2326   0.9821   0
1178.467   0.4387   0.2341   0.9820   0
1178.527   0.5669   0.2431   0.9820   0
1178.587   0.8631   0.2638   0.9819   0
1178.647   0.6934   0.2523   0.9819   0
1178.707   0.7150   0.2544   0.9818   0
1178.766   0.8848   0.2656   0.9817   0
1178.826   0.8009   0.2602   0.9817   1
1178.886   0.8665   0.2638   0.9816   1
1178.946   0.5052   0.2399   0.9816   1
1179.006   0.9286   0.2687   0.9815   1
1179.066   0.9920   0.2726   0.9814   1
1179.125   0.7597   0.2576   0.9814   1
1179.185   0.8223   0.2614   0.9813   1
1179.245   0.9700   0.2712   0.9813   1
1179.305   0.7363   0.2563   0.9812   1
1179.365   0.8840   0.2659   0.9811   1
1179.424   0.6315   0.2479   0.9811   1
1179.484   0.6941   0.2530   0.9810   1
1179.544   0.7561   0.2570   0.9809   1
1179.604   0.6715   0.2503   0.9809   1
1179.664   0.5867   0.2442   0.9808   1
1179.724   0.9458   0.2704   0.9808   1
1179.783   0.7558   0.2560   0.9807   1
1179.843   0.6484   0.2494   0.9806   1
1179.903   1.0695   0.2772   0.9806   1
1179.963   0.9426   0.2681   0.9805   1
1180.023   0.9193   0.2674   0.9804   1
1180.083   0.8952   0.2685   0.9804   1
1180.142   1.1067   0.2815   0.9803   1
1180.202   0.9494   0.2720   0.9802   1
1180.262   0.8098   0.2616   0.9802   1
1180.322   0.8520   0.2651   0.9801   1
1180.382   1.0018   0.2744   0.9800   1
1180.441   0.8443   0.2627   0.9800   1
1180.501   0.7504   0.2563   0.9799   1
1180.561   0.8635   0.2643   0.9798   1
1180.621   0.7937   0.2582   0.9798   1
1180.681   0.7715   0.2568   0.9797   1
1180.740   0.6862   0.2498   0.9796   1
1180.800   0.7488   0.2543   0.9795   1
1180.860   0.7693   0.2567   0.9795   1
1180.920   0.8526   0.2607   0.9794   1
1180.980   0.8321   0.2597   0.9793   1
1181.040   0.7268   0.2527   0.9793   1
1181.099   0.8730   0.2631   0.9792   1
1181.159   0.7473   0.2528   0.9791   1
1181.219   0.7874   0.2562   0.9790   1
1181.279   0.5984   0.2432   0.9790   1
1181.339   0.6613   0.2470   0.9789   1
1181.399   0.8282   0.2592   0.9788   1
1181.458   1.1400   0.2785   0.9788   1
1181.518   0.5136   0.2364   0.9787   1
1181.578   0.9090   0.2638   0.9786   1
1181.638   0.8465   0.2592   0.9785   1
1181.698   0.6593   0.2464   0.9785   1
1181.757   0.8452   0.2586   0.9784   1
1181.817   0.9505   0.2656   0.9783   1
1181.877   0.9916   0.2674   0.9782   1
1181.937   0.9495   0.2663   0.9782   1
1181.997   0.7206   0.2501   0.9781   1
1182.057   0.5900   0.2425   0.9780   1
1182.116   0.8174   0.2586   0.9779   1
1182.176   0.6743   0.2499   0.9778   1
1182.236   0.8018   0.2579   0.9778   1
1182.296   0.6667   0.2480   0.9777   1
1182.356   0.8797   0.2623   0.9776   1
1182.415   1.0454   0.2739   0.9775   1
1182.475   1.0222   0.2712   0.9774   1
1182.535   0.8592   0.2602   0.9774   1
1182.595   0.9259   0.2626   0.9773   1
1182.655   0.5934   0.2400   0.9772   1
1182.715   0.7982   0.2539   0.9771   1
1182.774   0.9401   0.2623   0.9770   1
1182.834   0.7763   0.2523   0.9769   1
1182.894   0.8770   0.2598   0.9769   1
1182.954   0.7313   0.2483   0.9768   1
1183.014   0.9993   0.2649   0.9767   1
1183.073   1.0592   0.2693   0.9766   1
1183.133   0.8332   0.2552   0.9765   1
1183.193   0.7701   0.2513   0.9764   1
1183.253   1.0760   0.2699   0.9764   1
1183.313   0.8914   0.2584   0.9763   1
1183.373   0.6869   0.2447   0.9762   1
1183.432   0.8300   0.2545   0.9761   1
1183.492   0.6865   0.2444   0.9760   1
1183.552   0.8288   0.2531   0.9759   1
1183.612   0.7467   0.2481   0.9758   1
1183.672   0.6654   0.2428   0.9757   1
1183.731   0.8666   0.2552   0.9756   1
1183.791   0.7246   0.2460   0.9756   1
1183.851   0.6425   0.2406   0.9755   1
1183.911   0.8064   0.2510   0.9754   1
1183.971   0.7629   0.2478   0.9753   1
1184.031   0.8430   0.2526   0.9752   1
1184.090   0.9841   0.2623   0.9751   1
1184.150   0.8012   0.2504   0.9750   1
1184.210   0.7597   0.2471   0.9749   0
1184.270   0.7588   0.2471   0.9748   0
1184.330   0.7999   0.2500   0.9747   0
1184.390   0.6379   0.2380   0.9746   0
1184.449   0.6556   0.2395   0.9745   0
1184.509   0.4347   0.2234   0.9744   0
1184.569   0.7136   0.2430   0.9743   0
1184.629   0.6534   0.2387   0.9742   0
1184.689   0.6528   0.2387   0.9741   0
1184.748   0.4920   0.2270   0.9740   0
1184.808   0.5109   0.2285   0.9739   0
1184.868   0.4708   0.2249   0.9738   0
1184.928   0.6694   0.2391   0.9737   0
1184.988   0.6286   0.2351   0.9736   0
1185.047   0.5883   0.2331   0.9735   0
1185.107   0.5814   0.2326   0.9734   0
1185.167   0.9081   0.2572   0.9733   0
1185.227   0.5593   0.2333   0.9732   0
1185.287   0.8709   0.2545   0.9731   0
1185.347   0.6982   0.2410   0.9730   0
1185.406   0.7158   0.2422   0.9729   0
1185.466   0.7345   0.2437   0.9728   0
1185.526   0.7920   0.2487   0.9727   0
1185.586   0.8798   0.2551   0.9726   0
1185.646   0.6806   0.2397   0.9725   0
1185.706   0.7578   0.2449   0.9724   0
1185.765   0.7345   0.2443   0.9723   0
1185.825   0.5725   0.2319   0.9721   0
1185.885   0.4294   0.2205   0.9720   0
1185.945   0.6471   0.2356   0.9719   0
1186.005   0.5135   0.2247   0.9718   0
1186.064   0.4861   0.2219   0.9717   0
1186.124   0.9155   0.2509   0.9716   0
1186.184   0.5226   0.2241   0.9715   0
1186.244   0.7570   0.2408   0.9714   0
1186.304   0.6789   0.2360   0.9712   0
1186.364   0.6199   0.2316   0.9711   0
1186.423   0.6568   0.2335   0.9710   0
1186.483   0.4607   0.2193   0.9709   0
1186.543   0.7524   0.2400   0.9708   0
1186.603   0.5183   0.2232   0.9707   0
1186.663   0.5564   0.2257   0.9705   0
1186.723   0.4002   0.2138   0.9704   0
1186.782   0.6708   0.2332   0.9703   0
1186.842   0.5929   0.2283   0.9702   0
1186.902   0.6108   0.2294   0.9701   0
1186.962   0.5334   0.2230   0.9699   0
1187.022   0.8991   0.2476   0.9698   0
1187.081   0.6290   0.2296   0.9697   0
1187.141   0.8802   0.2467   0.9696   0
1187.201   0.9764   0.2514   0.9694   0
1187.261   0.7453   0.2365   0.9693   0
1187.321   0.9363   0.2476   0.9692   0
1187.380   0.8974   0.2472   0.9691   0
1187.440   0.7254   0.2350   0.9689   0
1187.500   0.8779   0.2450   0.9688   0
1187.560   0.7064   0.2345   0.9687   0
1187.620   0.6471   0.2305   0.9685   0
1187.680   0.7243   0.2349   0.9684   0
1187.739   0.7037   0.2336   0.9683   0
1187.799   0.5902   0.2259   0.9681   0
1187.859   0.5888   0.2262   0.9680   0
1187.919   0.7417   0.2362   0.9679   0
1187.979   0.5888   0.2249   0.9677   0
1188.039   0.7991   0.2401   0.9676   0
1188.098   0.8739   0.2445   0.9675   0
1188.158   0.6070   0.2267   0.9673   0
1188.218   0.7977   0.2389   0.9672   0
1188.278   0.7775   0.2380   0.9670   0
1188.338   0.7571   0.2357   0.9669   0
1188.397   0.5473   0.2211   0.9667   0
1188.457   0.7118   0.2336   0.9666   0
1188.517   0.8043   0.2410   0.9665   0
1188.577   0.9311   0.2487   0.9663   0
1188.637   0.8695   0.2446   0.9662   0
1188.697   0.8700   0.2458   0.9660   0
1188.756   0.9063   0.2477   0.9659   0
1188.816   0.6925   0.2327   0.9657   0
1188.876   0.6670   0.2310   0.9656   0
1188.936   0.7102   0.2327   0.9654   0
1188.996   0.9808   0.2487   0.9653   0
1189.055   0.7713   0.2349   0.9651   0
1189.115   0.7332   0.2325   0.9650   0
1189.175   0.6955   0.2299   0.9648   0
1189.235   0.6953   0.2311   0.9647   0
1189.295   0.5805   0.2224   0.9645   0
1189.355   0.8248   0.2383   0.9643   0
1189.414   0.7109   0.2317   0.9642   0
1189.474   0.6532   0.2267   0.9640   0
1189.534   0.4834   0.2145   0.9639   0
1189.594   0.8213   0.2376   0.9637   0
1189.654   0.5216   0.2180   0.9635   0
1189.714   0.5960   0.2222   0.9634   0
1189.773   0.5940   0.2220   0.9632   0
1189.833   0.6313   0.2254   0.9630   0
1189.893   0.7251   0.2311   0.9629   0
1189.953   0.6492   0.2259   0.9627   0
1190.013   0.5562   0.2192   0.9625   0
1190.072   0.4052   0.2087   0.9624   0
1190.132   0.2554   0.1955   0.9622   0
1190.192   0.3491   0.2032   0.9620   0
1190.252   0.1811   0.1892   0.9618   0
1190.312   0.1436   0.1854   0.9617   0
1190.371   0.1250   0.1834   0.9615   0
1190.431   0.0694   0.1785   0.9613   0
1190.491   0.1460   0.1860   0.9611   0
1190.551   0.1503   0.1866   0.9610   0
1190.611   0.2097   0.1921   0.9608   0
1190.671   0.2284   0.1941   0.9606   0
1190.730   0.2294   0.1939   0.9604   0
1190.790   0.3269   0.2025   0.9602   0
1190.850   0.3284   0.2019   0.9600   0
1190.910   0.3636   0.2044   0.9598   0
1190.970   0.2982   0.1983   0.9597   0
1191.030   0.3683   0.2037   0.9595   0
1191.089   0.4976   0.2141   0.9593   0
1191.149   0.4237   0.2071   0.9591   0
1191.209   0.5156   0.2145   0.9589   0
1191.269   0.6830   0.2267   0.9587   0
1191.329   0.5529   0.2170   0.9585   0
1191.388   0.5537   0.2174   0.9583   0
1191.448   0.4610   0.2095   0.9581   0
1191.508   0.4419   0.2091   0.9579   0
1191.568   0.3295   0.1994   0.9577   0
1191.628   0.2555   0.1932   0.9575   0
1191.688   0.2742   0.1947   0.9573   0
1191.747   0.1999   0.1881   0.9571   0
1191.807   0.0342   0.1726   0.9569   0
1191.867   0.0710   0.1759   0.9566   0
1191.927   0.0891   0.1779   0.9564   0
1191.987   0.0332   0.1723   0.9562   0
1192.047   0.0517   0.1740   0.9560   0
1192.106   0.0702   0.1758   0.9558   0
1192.166   0.0511   0.1737   0.9556   0
1192.226   0.0319   0.1717   0.9554   0
1192.286   0.0326   0.1718   0.9551   0
1192.346   0.0497   0.1735   0.9549   0
1192.405   0.0681   0.1751   0.9547   0
1192.465   0.1226   0.1802   0.9545   0
1192.525   0.0685   0.1749   0.9542   0
1192.585   0.1242   0.1803   0.9540   0
1192.645   0.2885   0.1947   0.9538   0
1192.704   0.3067   0.1966   0.9535   0
1192.764   0.4152   0.2046   0.9533   0
1192.824   0.2874   0.1940   0.9531   0
1192.884   0.2511   0.1909   0.9528   0
1192.944   0.2508   0.1908   0.9526   0
1193.004   0.2880   0.1937   0.9523   0
1193.063   0.2324   0.1888   0.9521   0
1193.123   0.1958   0.1862   0.9519   0
1193.183   0.1773   0.1843   0.9516   0
1193.243   0.0868   0.1758   0.9514   0
1193.303   0.0686   0.1739   0.9511   0
1193.363   0.1413   0.1806   0.9509   0
1193.422   0.1591   0.1824   0.9506   0
1193.482   0.1587   0.1816   0.9504   0
1193.542   0.1982   0.1860   0.9501   0
1193.602   0.3127   0.1963   0.9498   0
1193.662   0.2424   0.1905   0.9496   0
1193.721   0.2787   0.1937   0.9493   0
1193.781   0.3356   0.1979   0.9490   0
1193.841   0.3199   0.1967   0.9488   0
1193.901   0.4267   0.2069   0.9485   0
1193.961   0.4300   0.2069   0.9482   0
1194.021   0.2873   0.1951   0.9479   0
1194.080   0.2994   0.1955   0.9477   0
1194.140   0.3160   0.1959   0.9474   0
1194.200   0.5240   0.2132   0.9471   0
1194.260   0.5076   0.2113   0.9468   0
1194.320   0.6206   0.2199   0.9465   0
1194.379   0.3282   0.1961   0.9463   0
1194.439   0.3020   0.1926   0.9460   0
1194.499   0.3737   0.1987   0.9457   0
1194.559   0.1942   0.1837   0.9454   0
1194.619   0.1580   0.1804   0.9451   0
1194.679   0.1939   0.1835   0.9448   0
1194.738   0.0324   0.1682   0.9445   0
1194.798   0.1572   0.1798   0.9442   0
1194.858   0.0311   0.1680   0.9439   0
1194.918   -0.0047   0.1643   0.9436   0
1194.978   0.0668   0.1712   0.9432   0
1195.037   0.0310   0.1678   0.9429   0
1195.097   0.0305   0.1677   0.9426   0
1195.157   0.0121   0.1658   0.9423   0
1195.217   0.0123   0.1657   0.9420   0
1195.277   0.0661   0.1709   0.9416   0
1195.337   -0.0049   0.1637   0.9413   0
1195.396   0.0671   0.1706   0.9410   0
1195.456   0.1027   0.1737   0.9406   0
1195.516   0.0670   0.1706   0.9403   0
1195.576   0.2798   0.1897   0.9400   0
1195.636   0.2790   0.1895   0.9396   0
1195.695   0.2608   0.1880   0.9393   0
1195.755   0.3493   0.1945   0.9389   0
1195.815   0.4571   0.2029   0.9386   0
1195.875   0.6166   0.2139   0.9382   0
1195.935   0.4917   0.2056   0.9379   0
1195.995   0.4030   0.1989   0.9375   0
1196.054   0.4203   0.1999   0.9372   0
1196.114   0.4903   0.2053   0.9368   0
1196.174   0.4805   0.1890   0.9364   0
1196.234   0.4190   0.1990   0.9360   0
1196.294   0.5242   0.2069   0.9357   0
1196.354   0.6119   0.2134   0.9353   0
1196.413   0.4879   0.2043   0.9349   0
1196.473   0.5568   0.2091   0.9345   0
1196.533   0.6802   0.2176   0.9341   0
1196.593   0.6116   0.2127   0.9337   0
1196.653   0.7523   0.2219   0.9334   0
1196.712   0.7166   0.2190   0.9330   1
1196.772   0.7333   0.2216   0.9326   1
1196.832   0.7164   0.2213   0.9321   1
1196.892   0.6957   0.2208   0.9317   1
1196.952   0.8850   0.2344   0.9313   1
1197.011   0.8426   0.2303   0.9309   1
1197.071   0.6729   0.2185   0.9305   1
1197.131   0.7628   0.2248   0.9301   1
1197.191   1.0069   0.2392   0.9296   1
1197.251   0.7864   0.2265   0.9292   1
1197.311   0.7347   0.2209   0.9288   1
1197.370   0.6956   0.2175   0.9283   1
1197.430   0.6431   0.2140   0.9279   1
1197.490   0.6251   0.2118   0.9274   1
1197.550   0.6766   0.2155   0.9270   1
1197.610   0.7107   0.2178   0.9265   1
1197.670   0.7274   0.2190   0.9261   1
1197.729   0.8678   0.2278   0.9256   1
1197.789   1.0069   0.2365   0.9251   1
1197.849   0.6061   0.2107   0.9247   1
1197.909   0.8131   0.2229   0.9242   1
1197.969   0.8481   0.2264   0.9237   1
1198.028   0.6913   0.2154   0.9232   1
1198.088   0.7940   0.2223   0.9227   1
1198.148   0.7416   0.2196   0.9222   1
1198.208   0.7758   0.2214   0.9217   0
1198.268   0.8087   0.2237   0.9212   0
1198.328   0.6200   0.2115   0.9207   0
1198.387   0.8436   0.2258   0.9202   0
1198.447   0.7398   0.2192   0.9197   0
1198.507   0.7738   0.2207   0.9192   0
1198.567   0.6174   0.2104   0.9186   0
1198.627   0.7550   0.2192   0.9181   0
1198.687   0.7549   0.2183   0.9175   0
1198.746   0.4952   0.2008   0.9170   0
1198.806   0.5328   0.2043   0.9165   0
1198.866   0.5276   0.2051   0.9159   0
1198.926   0.6850   0.2176   0.9153   0
1198.986   0.5401   0.2078   0.9148   0
1199.045   0.5711   0.2083   0.9142   0
1199.105   0.6920   0.2168   0.9136   0
1199.165   0.5685   0.2080   0.9130   0
1199.225   0.7523   0.2204   0.9124   0
1199.285   0.6610   0.2138   0.9119   0
1199.344   0.3245   0.1880   0.9113   0
1199.404   0.3891   0.1923   0.9106   0
1199.464   0.4232   0.1956   0.9100   0
1199.524   0.3550   0.1901   0.9094   0
1199.584   0.4407   0.1963   0.9088   0
1199.644   0.4393   0.1957   0.9082   0
1199.703   0.6099   0.2084   0.9075   0
1199.763   0.5413   0.2039   0.9069   0
1199.823   0.4215   0.1943   0.9062   0
1199.883   0.5065   0.2007   0.9056   0
1199.943   0.7291   0.2157   0.9049   0
1200.003   0.3198   0.1868   0.9042   0
1200.062   0.3369   0.1875   0.9036   0
1200.122   0.4380   0.1953   0.9029   0
1200.182   0.4388   0.1961   0.9022   0
1200.242   0.3022   0.1846   0.9015   0
1200.302   0.4211   0.1947   0.9008   0
1200.361   0.4721   0.1977   0.9000   0
1200.421   0.3188   0.1864   0.8993   0
1200.481   0.5396   0.2024   0.8986   0
1200.541   0.2669   0.1816   0.8979   0
1200.601   0.1986   0.1759   0.8971   0
1200.661   0.2159   0.1772   0.8963   0
1200.720   0.1480   0.1713   0.8956   0
1200.780   0.1318   0.1692   0.8948   0
1200.840   0.1153   0.1677   0.8940   0
1200.900   0.0977   0.1663   0.8933   0
1200.960   0.0298   0.1598   0.8925   0
1201.019   0.0634   0.1630   0.8917   0
1201.079   0.0464   0.1613   0.8908   0
1201.139   0.0970   0.1662   0.8900   0
1201.199   0.0632   0.1629   0.8892   0
1201.259   0.0633   0.1628   0.8883   0
1201.319   0.0124   0.1577   0.8875   0
1201.378   0.0465   0.1610   0.8866   0
1201.438   0.0129   0.1576   0.8858   0
1201.498   0.0635   0.1625   0.8849   0
1201.558   0.0637   0.1624   0.8840   0
1201.618   0.0131   0.1574   0.8831   0
1201.677   0.0973   0.1655   0.8822   0
1201.737   0.0465   0.1606   0.8813   0
1201.797   0.0637   0.1622   0.8803   0
1201.857   0.0809   0.1639   0.8794   0
1201.917   0.0484   0.1608   0.8785   0
1201.977   0.0490   0.1611   0.8775   0
1202.036   0.0847   0.1646   0.8765   0
1202.096   0.0488   0.1612   0.8755   0
1202.156   0.0137   0.1574   0.8745   0
1202.216   0.0666   0.1629   0.8735   0
1202.276   0.0324   0.1593   0.8725   0
1202.335   0.0706   0.1636   0.8715   0
1202.395   0.0705   0.1637   0.8704   0
1202.455   0.0668   0.1627   0.8694   0
1202.515   0.0844   0.1642   0.8683   0
1202.575   0.0830   0.1639   0.8672   0
1202.635   0.0842   0.1643   0.8661   0
1202.694   0.1536   0.1706   0.8650   0
1202.754   0.1507   0.1701   0.8639   0
1202.814   0.2330   0.1768   0.8628   0
1202.874   0.2311   0.1767   0.8616   0
1202.934   0.3290   0.1842   0.8605   0
1202.994   0.4467   0.1932   0.8593   0
1203.053   0.3967   0.1895   0.8581   0
1203.113   0.3127   0.1825   0.8569   0
1203.173   0.4464   0.1929   0.8557   0
1203.233   0.3959   0.1892   0.8544   0
1203.293   0.3285   0.1841   0.8532   0
1203.352   0.4295   0.1921   0.8519   0
1203.412   0.3295   0.1838   0.8506   0
1203.472   0.3963   0.1891   0.8493   0
1203.532   0.3630   0.1858   0.8480   0
1203.592   0.4782   0.1948   0.8467   0
1203.651   0.4113   0.1898   0.8454   0
1203.711   0.4454   0.1927   0.8440   0
1203.771   0.3621   0.1862   0.8426   0
1203.831   0.4947   0.1956   0.8412   0
1203.891   0.3115   0.1821   0.8398   0
1203.951   0.3952   0.1890   0.8383   0
1204.010   0.4118   0.1901   0.8369   0
1204.070   0.4116   0.1897   0.8354   0
1204.130   0.5099   0.1974   0.8339   0
1204.190   0.4436   0.1923   0.8324   0
1204.250   0.5768   0.2016   0.8309   0
1204.310   0.4772   0.1939   0.8293   0
1204.369   0.4768   0.1941   0.8278   0
1204.429   0.2443   0.1763   0.8262   0
1204.489   0.4089   0.1891   0.8245   0
1204.549   0.4928   0.1959   0.8229   0
1204.609   0.4594   0.1925   0.8212   0
1204.668   0.3277   0.1829   0.8196   0
1204.728   0.6410   0.2054   0.8178   0
1204.788   0.5093   0.1963   0.8161   0
1204.848   0.4109   0.1894   0.8144   0
1204.908   0.3762   0.1863   0.8126   0
1204.968   0.4757   0.1938   0.8108   0
1205.027   0.4416   0.1913   0.8090   0
1205.087   0.6078   0.2029   0.8071   0
1205.147   0.2767   0.1785   0.8052   0
1205.207   0.5891   0.2018   0.8033   0
1205.267   0.6378   0.2062   0.8014   0
1205.327   0.4463   0.1934   0.7994   0
1205.386   0.7583   0.2152   0.7974   0
1205.446   0.3722   0.1875   0.7954   0
1205.506   0.5259   0.1984   0.7934   0
1205.566   0.4080   0.1899   0.7913   0
1205.626   0.3926   0.1892   0.7892   0
1205.685   0.5075   0.1964   0.7871   0
1205.745   0.2974   0.1807   0.7849   0
1205.805   0.2585   0.1765   0.7827   0
1205.865   0.2407   0.1747   0.7805   0
1205.925   0.4380   0.1901   0.7782   0
1205.984   0.3072   0.1804   0.7760   0
1206.044   0.1915   0.1709   0.7736   0
1206.104   0.1260   0.1649   0.7712   0
1206.164   0.0939   0.1622   0.7688   0
1206.224   0.0288   0.1557   0.7664   0
1206.284   0.0129   0.1540   0.7639   0
1206.343   0.0624   0.1589   0.7615   0
1206.403   0.0459   0.1573   0.7589   0
1206.463   -0.0041   0.1523   0.7563   0
1206.523   0.0451   0.1572   0.7537   0
1206.583   0.0287   0.1556   0.7510   0
1206.643   0.0128   0.1539   0.7483   0
1206.702   0.0293   0.1555   0.7456   0
1206.762   0.0784   0.1603   0.7428   0
1206.822   0.1105   0.1629   0.7400   0
1206.882   0.0617   0.1587   0.7371   0
1206.942   0.0777   0.1600   0.7342   0
1207.001   0.1591   0.1678   0.7312   0
1207.061   0.1754   0.1689   0.7282   0
1207.121   0.2901   0.1788   0.7252   0
1207.181   0.2243   0.1727   0.7220   0
1207.241   0.3055   0.1801   0.7189   0
1207.301   0.2485   0.1757   0.7157   0
1207.360   0.2703   0.1786   0.7125   0
1207.420   0.1500   0.1678   0.7091   0
1207.480   0.2165   0.1728   0.7058   0
1207.540   0.2500   0.1765   0.7023   0
1207.600   0.1659   0.1689   0.6989   0
1207.659   0.1484   0.1674   0.6954   0
1207.719   0.1298   0.1654   0.6918   0
1207.779   0.1782   0.1694   0.6881   0
1207.839   0.0276   0.1551   0.6844   0
1207.899   0.0600   0.1582   0.6807   0
1207.959   0.0441   0.1566   0.6768   0
1208.018   0.0116   0.1533   0.6730   0
1208.078   0.0119   0.1533   0.6690   0
1208.138   -0.0045   0.1516   0.6650   0
1208.198   0.0284   0.1548   0.6609   0
1208.258   0.0118   0.1532   0.6568   0
1208.318   0.0282   0.1548   0.6525   0
1208.377   0.0116   0.1532   0.6483   0
1208.437   -0.0055   0.1515   0.6439   0
1208.497   0.0108   0.1531   0.6395   0
1208.557   -0.0054   0.1515   0.6350   0
1208.617   0.0922   0.1610   0.6304   0
1208.676   0.0760   0.1595   0.6258   0
1208.736   0.0105   0.1531   0.6210   0
1208.796   0.2221   0.1726   0.6162   0
1208.856   0.1408   0.1652   0.6113   0
1208.916   0.1399   0.1651   0.6063   0
1208.975   0.2867   0.1777   0.6013   0
1209.035   0.3687   0.1838   0.5961   0
1209.095   0.4009   0.1866   0.5909   0
1209.155   0.3518   0.1827   0.5855   0
1209.215   0.5966   0.1998   0.5801   0
1209.275   0.4505   0.1903   0.5746   0
1209.334   0.3360   0.1816   0.5690   0
1209.394   0.4166   0.1881   0.5633   1
1209.454   0.5480   0.1973   0.5575   1
1209.514   0.4335   0.1891   0.5516   1
1209.574   0.5806   0.1988   0.5456   1
1209.634   0.5970   0.2001   0.5395   1
1209.693   0.4179   0.1876   0.5334   1
1209.753   0.4991   0.1934   0.5271   1
1209.813   0.4828   0.1923   0.5207   1
1209.873   0.5309   0.1950   0.5142   1
1209.933   0.6294   0.2020   0.5075   1
1209.992   0.6947   0.2065   0.5009   1
1210.052   0.4991   0.1935   0.4941   1
1210.112   0.4016   0.1864   0.4871   1
1210.172   0.4506   0.1892   0.4800   1
1210.232   0.4177   0.1870   0.4729   1
1210.292   0.4831   0.1918   0.4656   1
1210.351   0.4818   0.1931   0.4583   1
1210.411   0.4767   0.1941   0.4507   1
1210.471   0.5438   0.1985   0.4431   1
1210.531   0.6918   0.2083   0.4354   1
1210.591   0.5010   0.1943   0.4275   1
1210.651   0.4539   0.1917   0.4195   1
1210.710   0.2691   0.1772   0.4115   1
1210.770   0.4871   0.1943   0.4033   1
1210.830   0.3803   0.1865   0.3950   1
1210.890   0.4406   0.1907   0.3865   1
1210.950   0.3701   0.1848   0.3780   1
1211.009   0.4575   0.1920   0.3694   1
1211.069   0.3736   0.1852   0.3607   1
1211.129   0.3983   0.1854   0.3518   1
1211.189   0.2575   0.1746   0.3428   1
1211.249   0.4637   0.1903   0.3337   1
1211.308   0.2681   0.1750   0.3247   1
1211.368   0.4784   0.1902   0.3154   1
1211.428   0.3659   0.1824   0.3060   1
1211.488   0.3809   0.1833   0.2966   1
1211.548   0.3176   0.1788   0.2871   1
1211.608   0.3008   0.1771   0.2775   1
1211.667   0.3008   0.1776   0.2680   1
1211.727   0.2045   0.1694   0.2582   1
1211.787   0.3810   0.1829   0.2485   1
1211.847   0.2024   0.1684   0.2387   1
1211.907   0.2821   0.1752   0.2289   1
1211.967   0.2493   0.1730   0.2190   1
1212.026   0.2489   0.1728   0.2093   1
1212.086   0.1848   0.1672   0.1995   1
1212.146   0.1843   0.1671   0.1897   1
1212.206   0.2486   0.1723   0.1799   1
1212.266   0.1998   0.1687   0.1702   1
1212.325   0.1850   0.1674   0.1608   1
1212.385   0.1038   0.1602   0.1512   1
1212.445   0.2330   0.1711   0.1418   1
1212.505   0.1684   0.1656   0.1325   1
1212.565   0.0721   0.1568   0.1234   1
1212.625   0.2005   0.1684   0.1144   1
1212.684   0.1688   0.1658   0.1058   1
1212.744   0.1204   0.1611   0.0973   1
1212.804   0.1211   0.1612   0.0891   1
1212.864   0.1529   0.1639   0.0811   1
1212.924   0.0419   0.1536   0.0734   1
1212.984   0.0896   0.1582   0.0660   1
1213.043   0.1055   0.1596   0.0591   1
1213.103   0.1371   0.1624   0.0525   1
1213.163   0.1365   0.1622   0.0462   1
1213.223   0.1361   0.1622   0.0404   1
1213.283   0.1029   0.1593   0.0349   1
1213.342   0.0378   0.1534   0.0300   1
1213.402   0.0531   0.1549   0.0255   1
1213.462   0.0041   0.1501   0.0214   1
1213.522   0.0203   0.1516   0.0177   1
1213.582   0.0996   0.1590   0.0144   1
1213.641   0.0357   0.1530   0.0116   1
1213.701   0.0379   0.1535   0.0092   1
1213.761   0.0884   0.1588   0.0071   1
1213.821   0.1037   0.1601   0.0053   0
1213.881   0.0699   0.1567   0.0039   0
1213.941   0.0192   0.1521   0.0027   0
1214.000   0.0713   0.1456   0.0019   0
1214.060   0.0659   0.1565   0.0012   0
1214.120   0.0975   0.1588   0.0008   0
1214.180   0.1095   0.1596   0.0005   0
1214.240   0.0434   0.1539   0.0003   0
1214.300   0.1860   0.1656   0.0002   0
1214.359   0.1356   0.1617   0.0001   0
1214.419   0.1646   0.1641   0.0001   0
1214.479   0.2550   0.1707   0.0000   0
1214.539   0.3891   0.1804   0.0000   0
1214.599   0.3583   0.1778   0.0000   0
1214.658   0.7260   0.2000   0.0000   0
1214.718   1.6051   0.2440   0.0000   0
1214.778   5.9975   0.3869   0.0000   0
1214.838   15.7236   0.5776   0.0000   0
1214.898   29.0959   0.7559   0.0000   0
1214.958   47.4265   0.9432   0.0000   0
1215.017   69.0489   1.1213   0.0000   0
1215.077   93.2418   1.2902   0.0000   0
1215.137   129.3630   1.5060   0.0000   0
1215.197   161.6512   1.6744   0.0000   0
1215.257   185.4398   1.7876   0.0000   0
1215.316   213.3756   1.9115   0.0000   0
1215.376   226.9536   1.9686   0.0000   0
1215.436   244.1708   2.0388   0.0000   0
1215.496   257.9809   2.0933   0.0000   0
1215.556   265.9965   2.1240   0.0000   0
1215.616   259.3279   2.0977   0.0000   0
1215.675   257.2903   2.0983   0.0000   0
1215.735   254.3554   2.1239   0.0000   0
1215.795   231.6463   2.0322   0.0000   0
1215.855   212.4785   1.9481   0.0000   0
1215.915   190.5577   1.8480   0.0000   0
1215.974   167.1589   1.7428   0.0000   0
1216.034   148.0066   1.6460   0.0000   0
1216.094   111.8479   1.4249   0.0000   0
1216.154   78.4108   1.1936   0.0000   0
1216.214   55.1384   1.0057   0.0000   0
1216.274   38.7687   0.8554   0.0000   0
1216.333   21.2554   0.6533   0.0000   0
1216.393   9.0167   0.4521   0.0000   0
1216.453   2.2513   0.2682   0.0000   0
1216.513   0.7270   0.1989   0.0000   0
1216.573   0.2758   0.1702   0.0000   0
1216.632   0.3320   0.1748   0.0000   0
1216.692   0.2153   0.1664   0.0000   0
1216.752   0.1438   0.1602   0.0000   0
1216.812   0.1653   0.1619   0.0000   0
1216.872   0.1833   0.1632   0.0000   0
1216.932   0.1853   0.1638   0.0000   0
1216.991   0.0448   0.1516   0.0000   0
1217.051   -0.0015   0.1471   0.0000   0
1217.111   0.0158   0.1486   0.0000   0
1217.171   0.0323   0.1500   0.0000   0
1217.231   0.0805   0.1542   0.0000   0
1217.291   0.0338   0.1499   0.0000   0
1217.350   0.0028   0.1469   0.0000   0
1217.410   0.0191   0.1484   0.0000   0
1217.470   0.0191   0.1482   0.0000   0
1217.530   0.0199   0.1483   0.0000   0
1217.590   0.0675   0.1527   0.0000   0
1217.649   0.0369   0.1497   0.0000   0
1217.709   0.0386   0.1497   0.0000   0
1217.769   0.0076   0.1466   0.0000   0
1217.829   0.0225   0.1481   0.0000   0
1217.889   0.0540   0.1510   0.0000   1
1217.948   0.0232   0.1480   0.0000   1
1218.008   0.0547   0.1508   0.0000   1
1218.068   0.0078   0.1464   0.0000   1
1218.128   0.0242   0.1479   0.0000   1
1218.188   0.0402   0.1493   0.0000   1
1218.248   0.0084   0.1462   0.0000   1
1218.307   0.0384   0.1491   0.0000   1
1218.367   0.0542   0.1507   0.0000   1
1218.427   0.0065   0.1461   0.0000   1
1218.487   0.0381   0.1489   0.0000   1
1218.547   0.0070   0.1459   0.0001   1
1218.607   0.0226   0.1474   0.0001   1
1218.666   0.0381   0.1489   0.0002   1
1218.726   0.0695   0.1518   0.0003   1
1218.786   0.0409   0.1496   0.0005   1
1218.846   0.0089   0.1464   0.0007   1
1218.906   0.0407   0.1495   0.0011   1
1218.965   0.0074   0.1462   0.0015   1
1219.025   0.0237   0.1480   0.0022   1
1219.085   0.0241   0.1482   0.0031   1
1219.145   0.0416   0.1494   0.0042   1
1219.205   0.0906   0.1540   0.0056   1
1219.265   0.0257   0.1479   0.0073   1
1219.324   0.0095   0.1460   0.0093   1
1219.384   0.0419   0.1491   0.0118   1
1219.444   0.0425   0.1492   0.0146   1
1219.504   0.0908   0.1539   0.0179   1
1219.564   0.0401   0.1485   0.0216   1
1219.624   0.0837   0.1522   0.0257   1
1219.683   0.0365   0.1479   0.0302   1
1219.743   0.1142   0.1551   0.0352   1
1219.803   0.0678   0.1506   0.0406   1
1219.863   0.0989   0.1536   0.0464   1
1219.923   0.1457   0.1576   0.0526   1
1219.982   0.0848   0.1520   0.0591   1
1220.042   0.1778   0.1600   0.0661   1
1220.102   0.1779   0.1602   0.0734   1
1220.162   0.1464   0.1574   0.0811   1
1220.222   0.0689   0.1504   0.0890   1
1220.281   0.1307   0.1558   0.0970   1
1220.341   0.1917   0.1610   0.1055   1
1220.401   0.2689   0.1677   0.1142   1
1220.461   0.2231   0.1639   0.1230   1
1220.521   0.2699   0.1672   0.1321   1
1220.581   0.1638   0.1584   0.1412   1
1220.640   0.1656   0.1584   0.1504   1
1220.700   0.2271   0.1636   0.1598   1
1220.760   0.2273   0.1639   0.1694   1
1220.820   0.2274   0.1638   0.1790   1
1220.880   0.1969   0.1613   0.1886   1
1220.940   0.2115   0.1622   0.1983   1
1220.999   0.1809   0.1596   0.2079   1
1221.059   0.3653   0.1745   0.2176   1
1221.119   0.3497   0.1729   0.2273   1
1221.179   0.2109   0.1617   0.2370   1
1221.239   0.4248   0.1776   0.2467   1
1221.298   0.2874   0.1682   0.2562   1
1221.358   0.4089   0.1774   0.2658   1
1221.418   0.4092   0.1773   0.2754   1
1221.478   0.4852   0.1829   0.2848   1
1221.538   0.3935   0.1760   0.2943   1
1221.598   0.4538   0.1801   0.3036   1
1221.657   0.2543   0.1652   0.3127   1
1221.717   0.2528   0.1651   0.3219   1
1221.777   0.3602   0.1734   0.3309   1
1221.837   0.3902   0.1753   0.3399   1
1221.897   0.2379   0.1632   0.3488   1
1221.956   0.3446   0.1719   0.3574   1
1222.016   0.3752   0.1739   0.3661   1
1222.076   0.3517   0.1733   0.3747   1
1222.136   0.4560   0.1809   0.3832   1
1222.196   0.4304   0.1801   0.3915   1
1222.256   0.4133   0.1794   0.3997   1
1222.315   0.3143   0.1703   0.4077   1
1222.375   0.3798   0.1752   0.4158   1
1222.435   0.4272   0.1799   0.4237   1
1222.495   0.5004   0.1841   0.4314   1
1222.555   0.4104   0.1768   0.4391   1
1222.615   0.4982   0.1830   0.4467   1
1222.674   0.3762   0.1740   0.4540   1
1222.734   0.6516   0.1922   0.4613   1
1222.794   0.4692   0.1807   0.4686   1
1222.854   0.5443   0.1854   0.4757   1
1222.914   0.5443   0.1857   0.4827   1
1222.973   0.4832   0.1816   0.4895   1
1223.033   0.3157   0.1689   0.4962   1
1223.093   0.5443   0.1856   0.5029   1
1223.153   0.3910   0.1751   0.5095   1
1223.213   0.4969   0.1822   0.5159   1
1223.272   0.4355   0.1778   0.5222   1
1223.332   0.6173   0.1898   0.5285   1
1223.392   0.6015   0.1886   0.5346   1
1223.452   0.3890   0.1743   0.5407   1
1223.512   0.4497   0.1785   0.5466   1
1223.572   0.4342   0.1770   0.5525   1
1223.631   0.3422   0.1704   0.5582   1
1223.691   0.5236   0.1829   0.5638   1
1223.751   0.3720   0.1720   0.5694   1
1223.811   0.4021   0.1752   0.5749   1
1223.871   0.4172   0.1750   0.5803   1
1223.931   0.6140   0.1887   0.5856   1
1223.990   0.5530   0.1846   0.5907   1
1224.050   0.5531   0.1851   0.5959   1
1224.110   0.4786   0.1808   0.6009   1
1224.170   0.6736   0.1953   0.6059   1
1224.230   0.6321   0.1927   0.6107   1
1224.289   0.7429   0.1995   0.6155   1
1224.349   0.6718   0.1947   0.6202   1
1224.409   0.5494   0.1864   0.6248   1
1224.469   0.6761   0.1947   0.6294   1
1224.529   0.5978   0.1886   0.6339   1
1224.589   0.5258   0.1826   0.6383   1
1224.648   0.5680   0.1859   0.6426   1
1224.708   0.4322   0.1759   0.6469   1
1224.768   0.5674   0.1852   0.6511   1
1224.828   0.7333   0.1959   0.6553   1
1224.888   0.4316   0.1750   0.6593   1
1224.948   0.8535   0.2035   0.6633   1
1225.007   0.7945   0.1997   0.6672   1
1225.067   0.8524   0.2034   0.6711   1
1225.127   0.7022   0.1933   0.6749   1
1225.187   0.7318   0.1957   0.6787   1
1225.247   0.5666   0.1849   0.6824   1
1225.306   0.7016   0.1941   0.6860   1
1225.366   0.6866   0.1924   0.6895   1
1225.426   0.8802   0.2033   0.6931   1
1225.486   0.6267   0.1887   0.6965   1
1225.546   0.6414   0.1894   0.7000   1
1225.605   0.5953   0.1861   0.7033   1
1225.665   0.6711   0.1920   0.7066   1
1225.725   0.6849   0.1917   0.7098   1
1225.785   0.8643   0.2030   0.7131   1
1225.845   0.8195   0.2004   0.7162   1
1225.905   0.7747   0.1973   0.7193   1
1225.964   0.5787   0.1850   0.7223   1
1226.024   0.7151   0.1938   0.7254   1
1226.084   0.8946   0.2043   0.7283   1
1226.144   0.7295   0.1944   0.7313   0
1226.204   0.9235   0.2068   0.7341   0
1226.264   0.7742   0.1968   0.7370   0
1226.323   0.8483   0.2009   0.7397   0
1226.383   0.9224   0.2057   0.7425   0
1226.443   0.7729   0.1969   0.7452   0
1226.503   0.7279   0.1945   0.7479   0
1226.563   0.5636   0.1831   0.7505   0
1226.622   0.7269   0.1939   0.7530   0
1226.682   0.8337   0.1999   0.7556   0
1226.742   0.7738   0.1965   0.7581   0
1226.802   0.7429   0.1951   0.7606   0
1226.862   0.8046   0.1987   0.7630   0
1226.922   0.7584   0.1956   0.7654   0
1226.981   0.8479   0.2016   0.7678   0
1227.041   0.7425   0.1949   0.7701   0
1227.101   0.6824   0.1911   0.7724   0
1227.161   0.6665   0.1912   0.7747   0
1227.221   0.9166   0.2072   0.7769   0
1227.280   0.7046   0.1950   0.7791   0
1227.340   0.7470   0.1970   0.7813   0
1227.400   0.8954   0.2061   0.7834   0
1227.460   0.6438   0.1914   0.7855   0
1227.520   0.6237   0.1908   0.7876   0
1227.580   0.4783   0.1796   0.7897   0
1227.639   0.6588   0.1918   0.7917   0
1227.699   0.7328   0.1962   0.7937   0
1227.759   0.6358   0.1902   0.7957   0
1227.819   0.5877   0.1869   0.7976   0
1227.879   0.7458   0.1974   0.7995   0
1227.938   0.8093   0.1995   0.8014   0
1227.998   0.8451   0.2007   0.8032   0
1228.058   0.7814   0.1960   0.8051   0
1228.118   0.6481   0.1880   0.8069   0
1228.178   0.5155   0.1794   0.8087   0
1228.238   1.0944   0.2137   0.8105   0
1228.297   0.7247   0.1927   0.8122   0
1228.357   0.6933   0.1904   0.8139   0
1228.417   0.7085   0.1919   0.8156   0
1228.477   0.6783   0.1896   0.8173   0
1228.537   0.6486   0.1874   0.8189   0
1228.596   0.8982   0.2030   0.8205   0
1228.656   0.6008   0.1846   0.8221   0
1228.716   0.5861   0.1824   0.8237   0
1228.776   0.6450   0.1876   0.8253   0
1228.836   0.8382   0.1987   0.8269   0
1228.896   0.7496   0.1936   0.8284   0
1228.955   0.4530   0.1738   0.8299   0
1229.015   0.7932   0.1961   0.8314   0
1229.075   0.6903   0.1899   0.8328   0
1229.135   0.6165   0.1853   0.8343   0
1229.195   0.5721   0.1821   0.8357   0
1229.255   0.5567   0.1810   0.8371   0
1229.314   0.4967   0.1768   0.8385   0
1229.374   0.6597   0.1879   0.8399   0
1229.434   0.5711   0.1814   0.8413   0
1229.494   0.6155   0.1849   0.8426   0
1229.554   0.5708   0.1825   0.8439   0
1229.613   0.6009   0.1845   0.8452   0
1229.673   0.7045   0.1898   0.8465   0
1229.733   0.7185   0.1912   0.8478   0
1229.793   0.7340   0.1914   0.8491   0
1229.853   0.7772   0.1944   0.8503   0
1229.912   0.7337   0.1921   0.8515   0
1229.972   0.4236   0.1710   0.8528   0
1230.032   0.5701   0.1815   0.8540   0
1230.092   0.7766   0.1944   0.8552   0
1230.152   0.3795   0.1681   0.8563   0
1230.212   0.5996   0.1836   0.8575   0
1230.271   0.6719   0.1881   0.8586   0
1230.331   0.5976   0.1828   0.8598   0
1230.391   0.5281   0.1788   0.8609   0
1230.451   0.4957   0.1766   0.8620   0
1230.511   0.6098   0.1855   0.8631   0
1230.571   0.6172   0.1867   0.8642   0
1230.630   0.6786   0.1908   0.8652   0
1230.690   0.5518   0.1820   0.8663   0
1230.750   0.5673   0.1830   0.8673   0
1230.810   0.4604   0.1758   0.8684   0
1230.870   0.5792   0.1827   0.8694   0
1230.929   0.5890   0.1824   0.8704   0
1230.989   0.6997   0.1891   0.8714   0
1231.049   0.5816   0.1820   0.8724   0
1231.109   0.5664   0.1804   0.8733   0
1231.169   0.4797   0.1746   0.8743   0
1231.229   0.5672   0.1803   0.8753   0
1231.288   0.6249   0.1846   0.8762   0
1231.348   0.4645   0.1739   0.8771   0
1231.408   0.4794   0.1739   0.8781   0
1231.468   0.4932   0.1749   0.8790   0
1231.528   0.3467   0.1649   0.8799   0
1231.588   0.6106   0.1834   0.8808   0
1231.647   0.5226   0.1773   0.8816   0
1231.707   0.3175   0.1624   0.8825   0
1231.767   0.3749   0.1668   0.8834   0
1231.827   0.3957   0.1558   0.8842   0
1231.887   0.4337   0.1706   0.8851   0
1231.946   0.4634   0.1726   0.8859   0
1232.006   0.3470   0.1646   0.8867   0
1232.066   0.5958   0.1820   0.8875   0
1232.126   0.4780   0.1741   0.8884   0
1232.186   0.3464   0.1645   0.8892   0
1232.245   0.5224   0.1770   0.8899   0
1232.305   0.4793   0.1740   0.8907   0
1232.365   0.4056   0.1680   0.8915   0
1232.425   0.5155   0.1765   0.8923   0
1232.485   0.5104   0.1773   0.8930   0
1232.545   0.5507   0.1802   0.8938   0
1232.604   0.5098   0.1781   0.8945   0
1232.664   0.5666   0.1825   0.8952   0
1232.724   0.3497   0.1662   0.8960   0
1232.784   0.5760   0.1818   0.8967   0
1232.844   0.6257   0.1862   0.8974   0
1232.904   0.5551   0.1798   0.8981   0
1232.963   0.6862   0.1877   0.8988   0
1233.023   0.5939   0.1804   0.8995   0
1233.083   0.6660   0.1855   0.9002   0
1233.143   0.5213   0.1766   0.9009   0
1233.203   0.6535   0.1848   0.9015   0
1233.262   0.5067   0.1755   0.9022   0
1233.322   0.5930   0.1810   0.9028   0
1233.382   0.7542   0.1914   0.9035   0
1233.442   0.6376   0.1838   0.9041   0
1233.502   0.5930   0.1811   0.9048   0
1233.562   0.5492   0.1783   0.9054   0
1233.621   0.5201   0.1760   0.9060   0
1233.681   0.5065   0.1750   0.9066   0
1233.741   0.4934   0.1748   0.9073   0
1233.801   0.6390   0.1841   0.9079   0
1233.861   0.4938   0.1741   0.9085   0
1233.920   0.5226   0.1759   0.9091   0
1233.980   0.5081   0.1748   0.9097   0
1234.040   0.7120   0.1879   0.9102   0
1234.100   0.6234   0.1825   0.9108   0
1234.160   0.5946   0.1811   0.9114   0
1234.220   0.6073   0.1820   0.9120   0
1234.279   0.5214   0.1757   0.9125   0
1234.339   0.5505   0.1782   0.9131   0
1234.399   0.5072   0.1747   0.9136   0
1234.459   0.3906   0.1666   0.9142   0
1234.519   0.3766   0.1657   0.9147   0
1234.578   0.5659   0.1779   0.9152   0
1234.638   0.4924   0.1737   0.9158   0
1234.698   0.5788   0.1799   0.9163   0
1234.758   0.4913   0.1735   0.9168   0
1234.818   0.4186   0.1677   0.9173   0
1234.878   0.3896   0.1661   0.9178   0
1234.937   0.4184   0.1684   0.9183   0
1234.997   0.5470   0.1772   0.9188   0
1235.057   0.4325   0.1694   0.9193   0
1235.117   0.4183   0.1681   0.9198   0
1235.177   0.4190   0.1681   0.9203   0
1235.236   0.3756   0.1647   0.9208   0
1235.296   0.4625   0.1709   0.9213   0
1235.356   0.4774   0.1724   0.9218   0
1235.416   0.3742   0.1647   0.9222   0
1235.476   0.4809   0.1720   0.9227   0
1235.536   0.5064   0.1749   0.9232   0
1235.595   0.3632   0.1659   0.9236   0
1235.655   0.3658   0.1660   0.9241   0
1235.715   0.4862   0.1748   0.9245   0
1235.775   0.4686   0.1735   0.9250   0
1235.835   0.4984   0.1747   0.9254   0
1235.895   0.2568   0.1565   0.9259   0
1235.954   0.4321   0.1720   0.9263   0
1236.014   0.5818   0.1818   0.9267   0
1236.074   0.5354   0.1789   0.9271   0
1236.134   0.4379   0.1708   0.9276   0
1236.194   0.4809   0.1736   0.9280   0
1236.253   0.4485   0.1711   0.9284   0
1236.313   0.3988   0.1673   0.9288   0
1236.373   0.6218   0.1817   0.9292   0
1236.433   0.4580   0.1698   0.9296   0
1236.493   0.5445   0.1763   0.9300   0
1236.552   0.5020   0.1736   0.9304   0
1236.612   0.5308   0.1745   0.9308   0
1236.672   0.3865   0.1644   0.9312   0
1236.732   0.5455   0.1767   0.9316   0
1236.792   0.3865   0.1646   0.9320   0
1236.852   0.4162   0.1674   0.9324   0
1236.911   0.4742   0.1719   0.9327   0
1236.971   0.5614   0.1770   0.9331   0
1237.031   0.4740   0.1713   0.9335   0
1237.091   0.4743   0.1716   0.9339   0
1237.151   0.2717   0.1561   0.9342   0
1237.211   0.4307   0.1678   0.9346   0
1237.270   0.4748   0.1711   0.9349   0
1237.330   0.4303   0.1683   0.9353   0
1237.390   0.4456   0.1697   0.9357   0
1237.450   0.4154   0.1674   0.9360   0
1237.510   0.5456   0.1760   0.9364   0
1237.569   0.3714   0.1637   0.9367   0
1237.629   0.4020   0.1658   0.9370   0
1237.689   0.4016   0.1660   0.9374   0
1237.749   0.3871   0.1648   0.9377   0
1237.809   0.4881   0.1722   0.9381   0
1237.869   0.5330   0.1742   0.9384   0
1237.928   0.3438   0.1614   0.9387   0
1237.988   0.6189   0.1814   0.9390   0
1238.048   0.5176   0.1738   0.9394   0
1238.108   0.3431   0.1617   0.9397   0
1238.168   0.5599   0.1769   0.9400   0
1238.228   0.5023   0.1727   0.9403   0
1238.287   0.5021   0.1733   0.9406   0
1238.347   0.3293   0.1603   0.9409   0
1238.407   0.4445   0.1693   0.9413   0
1238.467   0.3287   0.1606   0.9416   0
1238.527   0.4156   0.1668   0.9419   0
1238.586   0.2134   0.1507   0.9422   0
1238.646   0.3573   0.1622   0.9425   0
1238.706   0.4440   0.1690   0.9428   0
1238.766   0.4021   0.1659   0.9431   0
1238.826   0.4311   0.1682   0.9433   0
1238.885   0.3893   0.1653   0.9436   0
1238.945   0.3757   0.1651   0.9439   0
1239.005   0.6260   0.1832   0.9442   0
1239.065   0.4837   0.1729   0.9445   0
1239.125   0.4491   0.1709   0.9448   0
1239.185   0.4350   0.1684   0.9451   0
1239.244   0.4006   0.1665   0.9453   0
1239.304   0.4078   0.1663   0.9456   0
1239.364   0.3726   0.1633   0.9459   0
1239.424   0.4451   0.1689   0.9461   0
1239.484   0.5600   0.1769   0.9464   0
1239.544   0.4302   0.1674   0.9467   0
1239.603   0.2709   0.1554   0.9469   0
1239.663   0.4444   0.1682   0.9472   0
1239.723   0.4603   0.1695   0.9475   0
1239.783   0.4014   0.1651   0.9477   0
1239.843   0.4306   0.1672   0.9480   0
1239.902   0.4885   0.1720   0.9482   0
1239.962   0.4315   0.1675   0.9485   0
1240.022   0.4318   0.1676   0.9487   0
1240.082   0.5190   0.1737   0.9490   0
1240.142   0.4614   0.1699   0.9492   0
1240.202   0.2011   0.1495   0.9495   0
1240.261   0.3748   0.1638   0.9497   0
1240.321   0.3454   0.1609   0.9500   0
1240.381   0.4319   0.1680   0.9502   0
1240.441   0.4607   0.1689   0.9505   0
1240.501   0.2725   0.1551   0.9507   0
1240.560   0.3160   0.1587   0.9509   0
1240.620   0.3453   0.1610   0.9512   0
1240.680   0.3165   0.1584   0.9514   0
1240.740   0.4029   0.1656   0.9516   0
1240.800   0.4027   0.1653   0.9518   0
1240.860   0.4888   0.1712   0.9521   0
1240.919   0.3671   0.1635   0.9523   0
1240.979   0.4091   0.1675   0.9525   0
1241.039   0.3963   0.1674   0.9527   0
1241.099   0.4387   0.1697   0.9530   0
1241.159   0.4503   0.1708   0.9532   0
1241.219   0.6465   0.1847   0.9534   0
1241.278   0.6688   0.1841   0.9536   0
1241.338   0.7282   0.1879   0.9538   0
1241.398   0.5609   0.1756   0.9540   0
1241.458   0.5169   0.1735   0.9543   0
1241.518   0.6612   0.1830   0.9545   0
1241.577   0.6893   0.1846   0.9547   0
1241.637   0.6032   0.1786   0.9549   0
1241.697   0.6752   0.1843   0.9551   0
1241.757   0.7046   0.1854   0.9553   0
1241.817   0.8206   0.1925   0.9555   0
1241.876   0.5321   0.1746   0.9557   0
1241.936   0.7920   0.1908   0.9559   0
1241.996   0.6320   0.1811   0.9561   0
1242.056   0.8032   0.1920   0.9563   0
1242.116   0.7318   0.1876   0.9565   0
1242.176   0.6740   0.1838   0.9567   0
1242.235   0.7481   0.1885   0.9569   0
1242.295   0.6046   0.1791   0.9571   0
1242.355   0.7201   0.1870   0.9573   0
1242.415   0.8361   0.1934   0.9575   0
1242.475   0.7792   0.1905   0.9576   0
1242.535   0.6635   0.1832   0.9578   0
1242.594   0.8820   0.1966   0.9580   0
1242.654   0.9526   0.1999   0.9582   0
1242.714   0.5613   0.1766   0.9584   0
1242.774   0.8493   0.1942   0.9586   1
1242.834   0.6619   0.1829   0.9587   1
1242.893   0.9384   0.1995   0.9589   1
1242.953   1.0110   0.2035   0.9591   1
1243.013   0.7794   0.1896   0.9593   1
1243.073   0.6781   0.1838   0.9595   1
1243.133   0.8637   0.1947   0.9596   1
1243.193   0.9210   0.1986   0.9598   1
1243.252   0.6456   0.1816   0.9600   1
1243.312   0.8613   0.1949   0.9601   1
1243.372   0.9640   0.2006   0.9603   1
1243.432   0.9053   0.1974   0.9605   1
1243.492   0.8639   0.1944   0.9607   1
1243.552   0.8662   0.1953   0.9608   1
1243.611   0.9958   0.2022   0.9610   1
1243.671   0.9101   0.1979   0.9612   1
1243.731   0.9097   0.1978   0.9613   1
1243.791   0.8675   0.1955   0.9615   1
1243.851   0.9979   0.2033   0.9616   1
1243.910   0.8657   0.1950   0.9618   1
1243.970   0.9453   0.2004   0.9620   1
1244.030   0.7139   0.1881   0.9621   1
1244.090   0.8586   0.1989   0.9623   1
1244.150   1.0497   0.2090   0.9624   1
1244.209   0.9795   0.2044   0.9626   1
1244.269   0.9385   0.2011   0.9627   1
1244.329   0.9746   0.2053   0.9629   1
1244.389   0.9405   0.2029   0.9631   0
1244.449   0.9491   0.2039   0.9632   0
1244.509   0.7745   0.1917   0.9634   0
1244.568   0.7732   0.1929   0.9635   0
1244.628   0.9344   0.2025   0.9637   0
1244.688   0.8534   0.1976   0.9638   0
1244.748   0.9880   0.2034   0.9640   0
1244.808   1.0259   0.2041   0.9641   0
1244.868   1.0713   0.2067   0.9642   0
1244.927   0.9407   0.2002   0.9644   0
1244.987   1.2454   0.2157   0.9645   0
1245.047   0.9990   0.2034   0.9647   0
1245.107   1.1888   0.2130   0.9648   0
1245.167   1.2480   0.2161   0.9650   0
1245.226   1.2195   0.2151   0.9651   0
1245.286   1.2058   0.2147   0.9652   0
1245.346   1.1909   0.2137   0.9654   0
1245.406   1.4238   0.2242   0.9655   0
1245.466   1.1479   0.2112   0.9657   0
1245.526   1.2072   0.2142   0.9658   0
1245.585   1.2320   0.2154   0.9659   0
1245.645   1.0869   0.2084   0.9661   0
1245.705   1.3917   0.2236   0.9662   0
1245.765   1.1169   0.2095   0.9663   0
1245.825   1.2184   0.2147   0.9665   0
1245.885   1.0729   0.2073   0.9666   0
1245.944   1.3353   0.2208   0.9667   0
1246.004   1.3207   0.2191   0.9669   0
1246.064   1.3053   0.2191   0.9670   0
1246.124   1.3354   0.2202   0.9671   0
1246.184   1.1313   0.2103   0.9672   0
1246.243   1.1311   0.2104   0.9674   0
1246.303   1.2194   0.2148   0.9675   0
1246.363   1.1759   0.2135   0.9676   0
1246.423   1.0592   0.2064   0.9677   0
1246.483   1.0881   0.2078   0.9679   0
1246.542   1.0301   0.2050   0.9680   0
1246.602   1.1773   0.2132   0.9681   0
1246.662   1.0755   0.2079   0.9682   0
1246.722   1.4564   0.2270   0.9684   0
1246.782   1.0339   0.2054   0.9685   0
1246.842   1.2235   0.2159   0.9686   0
1246.901   1.2537   0.2177   0.9687   0
1246.961   1.0634   0.2075   0.9688   0
1247.021   1.3559   0.2217   0.9689   0
1247.081   1.2978   0.2194   0.9691   0
1247.141   1.0799   0.2091   0.9692   0
1247.201   1.0365   0.2058   0.9693   0
1247.260   1.0471   0.2078   0.9694   0
1247.320   1.0717   0.2115   0.9695   0
1247.380   1.0828   0.2125   0.9696   0
1247.440   0.9363   0.2036   0.9697   0
1247.500   1.0398   0.2092   0.9699   0
1247.559   1.0996   0.2132   0.9700   0
1247.619   1.2076   0.2183   0.9701   0
1247.679   1.1376   0.2142   0.9702   0
1247.739   1.1696   0.2133   0.9703   0
1247.799   0.8767   0.1976   0.9704   0
1247.859   0.9799   0.2024   0.9705   0
1247.918   1.2762   0.2193   0.9706   0
1247.978   1.0846   0.2096   0.9707   0
1248.038   0.7442   0.1902   0.9708   0
1248.098   1.1117   0.2107   0.9710   0
1248.158   0.8494   0.1966   0.9711   0
1248.217   0.8932   0.1992   0.9712   0
1248.277   1.1277   0.2116   0.9713   0
1248.337   0.8789   0.1980   0.9714   0
1248.397   0.6876   0.1866   0.9715   0
1248.457   0.6570   0.1843   0.9716   0
1248.517   0.6731   0.1857   0.9717   0
1248.576   0.8069   0.1943   0.9718   0
1248.636   0.6750   0.1863   0.9719   0
1248.696   0.8378   0.1961   0.9720   0
1248.756   0.6454   0.1847   0.9721   0
1248.816   0.8382   0.1963   0.9722   0
1248.875   0.8389   0.1960   0.9723   0
1248.935   0.4837   0.1733   0.9724   0
1248.995   0.7362   0.1905   0.9725   0
1249.055   0.5427   0.1776   0.9726   0
1249.115   0.6313   0.1845   0.9727   0
1249.175   0.6761   0.1872   0.9728   0
1249.234   0.6924   0.1883   0.9729   0
1249.294   0.6852   0.1889   0.9730   0
1249.354   0.6660   0.1884   0.9731   0
1249.414   0.5935   0.1845   0.9731   0
1249.474   0.7581   0.1945   0.9732   0
1249.533   0.5729   0.1830   0.9733   0
1249.593   0.7523   0.1945   0.9734   0
1249.653   0.7762   0.1826   0.9735   0
1249.713   0.6441   0.1861   0.9736   0
1249.773   0.7071   0.1890   0.9737   0
1249.833   0.8557   0.1975   0.9738   0
1249.892   1.0662   0.2094   0.9739   0
1249.952   0.9180   0.2017   0.9740   0
1250.012   0.8740   0.1993   0.9741   0
1250.072   1.0396   0.2094   0.9742   0
1250.132   0.9939   0.2064   0.9742   0
1250.192   0.9774   0.2053   0.9743   0
1250.251   0.8891   0.2003   0.9744   0
1250.311   0.9492   0.2036   0.9745   0
1250.371   0.9343   0.2025   0.9746   0
1250.431   0.9949   0.2064   0.9747   0
1250.491   0.6964   0.1896   0.9748   0
1250.550   0.6067   0.1828   0.9748   0
1250.610   0.8759   0.1998   0.9749   0
1250.670   0.8920   0.2013   0.9750   0
1250.730   0.8482   0.1982   0.9751   0
1250.790   0.7887   0.1949   0.9752   0
1250.849   1.1326   0.2144   0.9753   0
1250.909   1.0146   0.2085   0.9753   0
1250.969   0.8355   0.1984   0.9754   0
1251.029   0.8942   0.2012   0.9755   0
1251.089   1.0016   0.2075   0.9756   0
1251.149   0.7909   0.1947   0.9757   0
1251.208   1.0461   0.2102   0.9758   0
1251.268   0.8668   0.2000   0.9758   0
1251.328   1.0741   0.2116   0.9759   0
1251.388   0.9994   0.2074   0.9760   0
1251.448   1.0894   0.2127   0.9761   0
1251.508   1.0595   0.2107   0.9762   0
1251.567   0.9702   0.2057   0.9762   0
1251.627   0.8354   0.1979   0.9763   0
1251.687   0.7758   0.1947   0.9764   0
1251.747   0.8514   0.1987   0.9765   0
1251.807   0.7470   0.1924   0.9765   0
1251.866   0.7778   0.1949   0.9766   0
1251.926   0.8207   0.1969   0.9767   0
1251.986   0.7155   0.1910   0.9768   0
1252.046   0.8962   0.2017   0.9768   0
1252.106   0.5804   0.1820   0.9769   0
1252.166   0.6698   0.1882   0.9770   0
1252.225   0.4583   0.1736   0.9771   0
1252.285   0.7303   0.1911   0.9771   0
1252.345   0.4590   0.1745   0.9772   0
1252.405   0.4366   0.1732   0.9773   0
1252.465   0.4556   0.1748   0.9774   0
1252.525   0.8296   0.2001   0.9774   0
1252.584   0.5934   0.1850   0.9775   0
1252.644   0.8198   0.1992   0.9776   0
1252.704   0.7876   0.1981   0.9776   0
1252.764   0.6351   0.1883   0.9777   0
1252.824   0.6519   0.1877   0.9778   0
1252.883   0.7934   0.1970   0.9779   0
1252.943   0.9037   0.2037   0.9779   0
1253.003   0.8224   0.1990   0.9780   0
1253.063   1.0989   0.2159   0.9781   0
1253.123   0.8483   0.1999   0.9781   0
1253.182   0.7799   0.1938   0.9782   0
1253.242   0.8651   0.1984   0.9783   0
1253.302   0.7291   0.1907   0.9783   0
1253.362   0.8640   0.1982   0.9784   0
1253.422   0.8647   0.1987   0.9785   0
1253.482   0.6258   0.1842   0.9785   0
1253.541   0.7900   0.1936   0.9786   0
1253.601   0.6556   0.1853   0.9787   0
1253.661   0.7607   0.1923   0.9787   0
1253.721   0.6256   0.1840   0.9788   0
1253.781   0.6990   0.1884   0.9789   0
1253.841   0.5792   0.1806   0.9789   0
1253.900   0.4903   0.1744   0.9790   0
1253.960   0.6844   0.1869   0.9791   0
1254.020   0.9075   0.2001   0.9791   0
1254.080   0.6986   0.1882   0.9792   0
1254.140   0.8317   0.1963   0.9793   0
1254.199   0.7715   0.1926   0.9793   0
1254.259   0.6823   0.1873   0.9794   0
1254.319   0.9348   0.2013   0.9794   0
1254.379   0.7263   0.1898   0.9795   0
1254.439   1.0685   0.2092   0.9796   0
1254.499   1.1421   0.2135   0.9796   0
1254.558   0.7104   0.1880   0.9797   0
1254.618   1.1417   0.2131   0.9798   0
1254.678   0.6220   0.1824   0.9798   0
1254.738   0.7997   0.1941   0.9799   0
1254.798   0.9186   0.2003   0.9799   0
1254.857   0.7858   0.1926   0.9800   0
1254.917   0.7549   0.1911   0.9801   0
1254.977   0.7548   0.1913   0.9801   0
1255.037   0.8735   0.1980   0.9802   0
1255.097   0.6806   0.1862   0.9802   0
1255.157   0.6501   0.1843   0.9803   0
1255.216   0.8427   0.1958   0.9804   0
1255.276   0.7684   0.1912   0.9804   0
1255.336   0.5751   0.1789   0.9805   0
1255.396   0.5610   0.1771   0.9805   0
1255.456   0.4710   0.1719   0.9806   0
1255.516   0.5016   0.1733   0.9806   0
1255.575   0.3531   0.1629   0.9807   0
1255.635   0.3871   0.1653   0.9808   0
1255.695   0.4753   0.1735   0.9808   0
1255.755   0.3552   0.1639   0.9809   0
1255.815   0.3233   0.1617   0.9809   0
1255.874   0.5105   0.1760   0.9810   0
1255.934   0.3999   0.1675   0.9810   0
1255.994   0.6223   0.1835   0.9811   0
1256.054   0.5360   0.1776   0.9811   0
1256.114   0.7763   0.1919   0.9812   0
1256.173   0.7076   0.1870   0.9813   0
1256.233   0.7674   0.1909   0.9813   0
1256.293   0.7671   0.1910   0.9814   0
1256.353   0.6775   0.1847   0.9814   0
1256.413   0.8259   0.1943   0.9815   0
1256.473   0.7076   0.1866   0.9815   0
1256.532   0.7224   0.1876   0.9816   0
1256.592   0.9146   0.1994   0.9816   0
1256.652   0.8845   0.1973   0.9817   0
1256.712   0.8102   0.1928   0.9817   0
1256.772   0.9582   0.2009   0.9818   0
1256.832   0.7211   0.1873   0.9818   0
1256.891   1.0021   0.2039   0.9819   0
1256.951   0.7518   0.1894   0.9819   0
1257.011   0.6776   0.1845   0.9820   0
1257.071   0.7965   0.1920   0.9820   0
1257.131   1.0332   0.2056   0.9821   0
1257.190   0.9584   0.2010   0.9821   0
1257.250   0.9283   0.1988   0.9822   0
1257.310   0.7656   0.1897   0.9822   0
1257.370   0.9133   0.1988   0.9823   0
1257.430   0.8230   0.1933   0.9823   0
1257.490   0.8962   0.1965   0.9824   0
1257.549   0.9410   0.1994   0.9824   0
1257.609   0.8665   0.1958   0.9825   0
1257.669   0.7645   0.1902   0.9825   0
1257.729   0.8755   0.1987   0.9826   0
1257.789   0.8343   0.1962   0.9826   0
1257.849   1.0363   0.2081   0.9827   0
1257.908   0.8345   0.1965   0.9827   0
1257.968   1.0020   0.2063   0.9828   0
1258.028   0.9300   0.2022   0.9828   0
1258.088   1.0995   0.2110   0.9829   0
1258.148   0.8149   0.1926   0.9829   0
1258.207   0.9253   0.1987   0.9830   0
1258.267   0.8956   0.1971   0.9830   0
1258.327   0.7796   0.1905   0.9831   0
1258.387   0.8224   0.1925   0.9831   0
1258.447   0.7620   0.1892   0.9832   0
1258.506   0.8505   0.1938   0.9832   0
1258.566   0.8801   0.1962   0.9832   0
1258.626   0.7913   0.1902   0.9833   0
1258.686   0.7178   0.1863   0.9833   0
1258.746   0.7902   0.1905   0.9834   0
1258.806   0.7755   0.1891   0.9834   0
1258.865   0.8942   0.1967   0.9835   0
1258.925   0.8634   0.1945   0.9835   0
1258.985   0.7897   0.1897   0.9836   0
1259.045   0.7590   0.1886   0.9836   0
1259.105   1.1849   0.2120   0.9837   0
1259.165   0.8040   0.1906   0.9837   0
1259.224   0.8923   0.1956   0.9837   0
1259.284   0.7461   0.1878   0.9838   0
1259.344   0.7610   0.1885   0.9838   0
1259.404   0.5847   0.1775   0.9839   0
1259.464   0.5559   0.1753   0.9839   0
1259.523   0.7324   0.1868   0.9840   0
1259.583   0.6282   0.1797   0.9840   0
1259.643   0.3785   0.1619   0.9840   0
1259.703   0.7154   0.1855   0.9841   0
1259.763   0.4378   0.1661   0.9841   0
1259.823   0.5102   0.1712   0.9842   0
1259.882   0.4370   0.1664   0.9842   0
1259.942   0.6128   0.1777   0.9843   0
1260.002   0.3486   0.1599   0.9843   0
1260.062   0.3492   0.1597   0.9843   0
1260.122   0.2754   0.1536   0.9844   0
1260.181   0.2019   0.1476   0.9844   0
1260.241   0.1140   0.1393   0.9845   0
1260.301   0.1868   0.1460   0.9845   0
1260.361   0.1423   0.1417   0.9845   0
1260.421   0.0391   0.1319   0.9846   0
1260.481   0.0827   0.1362   0.9846   0
1260.540   0.0536   0.1334   0.9847   0
1260.600   0.0686   0.1349   0.9847   0
1260.660   0.0540   0.1332   0.9847   0
1260.720   0.1284   0.1408   0.9848   0
1260.780   0.1788   0.1459   0.9848   0
1260.839   0.1798   0.1461   0.9849   0
1260.899   0.2419   0.1515   0.9849   0
1260.959   0.1790   0.1461   0.9849   0
1261.019   0.2731   0.1545   0.9850   0
1261.079   0.2732   0.1540   0.9850   0
1261.139   0.3785   0.1618   0.9851   0
1261.198   0.2092   0.1484   0.9851   0
1261.258   0.1811   0.1460   0.9851   0
1261.318   0.1211   0.1406   0.9852   0
1261.378   0.0600   0.1342   0.9852   0
1261.438   0.1058   0.1389   0.9852   0
1261.497   0.1362   0.1415   0.9853   0
1261.557   0.0896   0.1366   0.9853   0
1261.617   0.1615   0.1431   0.9854   0
1261.677   0.1432   0.1412   0.9854   0
1261.737   0.1870   0.1452   0.9854   0
1261.797   0.0994   0.1369   0.9855   0
1261.856   0.0117   0.1281   0.9855   0
1261.916   0.0265   0.1296   0.9855   0
1261.976   0.0555   0.1323   0.9856   0
1262.036   0.0411   0.1309   0.9856   0
1262.096   0.0411   0.1310   0.9856   0
1262.156   -0.0031   0.1264   0.9857   0
1262.215   0.0112   0.1278   0.9857   0
1262.275   0.0116   0.1279   0.9858   0
1262.335   0.0116   0.1278   0.9858   0
1262.395   -0.0026   0.1262   0.9858   0
1262.455   -0.0028   0.1262   0.9859   0
1262.514   0.0406   0.1307   0.9859   0
1262.574   0.0258   0.1292   0.9859   0
1262.634   0.0840   0.1351   0.9860   0
1262.694   0.1423   0.1404   0.9860   0
1262.754   0.0983   0.1363   0.9860   0
1262.813   0.1851   0.1442   0.9861   0
1262.873   0.4457   0.1652   0.9861   0
1262.933   0.4743   0.1670   0.9861   0
1262.993   0.3870   0.1607   0.9862   0
1263.053   0.7761   0.1865   0.9862   0
1263.113   0.6610   0.1802   0.9862   0
1263.172   0.5596   0.1731   0.9863   0
1263.232   0.8192   0.1892   0.9863   0
1263.292   0.7318   0.1841   0.9863   0
1263.352   0.8755   0.1926   0.9864   0
1263.412   0.7007   0.1813   0.9864   0
1263.472   0.9169   0.1944   0.9864   0
1263.531   0.6699   0.1789   0.9865   0
1263.591   0.8433   0.1907   0.9865   0
1263.651   0.9578   0.1964   0.9865   0
1263.711   0.7858   0.1870   0.9866   1
1263.771   0.9874   0.1982   0.9866   1
1263.830   0.7420   0.1839   0.9866   1
1263.890   0.7714   0.1858   0.9867   1
1263.950   0.6975   0.1813   0.9867   1
1264.010   0.8840   0.1923   0.9867   1
1264.070   0.8406   0.1897   0.9868   1
1264.130   0.9410   0.1968   0.9868   1
1264.189   0.9285   0.1979   0.9868   1
1264.249   0.9666   0.1999   0.9869   1
1264.309   0.8737   0.1942   0.9869   1
1264.369   0.7994   0.1905   0.9869   1
1264.429   1.1788   0.2119   0.9870   1
1264.489   0.7607   0.1864   0.9870   1
1264.548   0.8202   0.1891   0.9870   1
1264.608   0.7847   0.1859   0.9870   1
1264.668   0.9564   0.1967   0.9871   1
1264.728   0.6408   0.1774   0.9871   1
1264.788   0.7546   0.1840   0.9871   1
1264.847   0.7397   0.1832   0.9872   1
1264.907   0.8695   0.1908   0.9872   1
1264.967   0.8265   0.1883   0.9872   1
1265.027   0.9399   0.1952   0.9873   1
1265.087   1.0401   0.2005   0.9873   1
1265.146   0.9392   0.1945   0.9873   1
1265.206   0.9250   0.1944   0.9873   1
1265.266   0.9100   0.1932   0.9874   1
1265.326   0.8529   0.1898   0.9874   1
1265.386   0.8513   0.1898   0.9874   1
1265.446   1.0378   0.2003   0.9875   1
1265.505   1.1078   0.2035   0.9875   1
1265.565   0.9362   0.1941   0.9875   1
1265.625   0.9355   0.1946   0.9876   1
1265.685   0.8356   0.1890   0.9876   1
1265.745   0.9196   0.1935   0.9876   1
1265.805   0.8481   0.1895   0.9876   1
1265.864   1.0039   0.1981   0.9877   1
1265.924   0.8896   0.1917   0.9877   1
1265.984   0.8900   0.1920   0.9877   1
1266.044   0.6910   0.1799   0.9878   1
1266.104   0.8902   0.1916   0.9878   1
1266.163   0.8262   0.1896   0.9878   1
1266.223   0.8898   0.1941   0.9878   1
1266.283   0.7312   0.1851   0.9879   1
1266.343   0.9058   0.1961   0.9879   1
1266.403   0.7067   0.1844   0.9879   1
1266.463   0.7515   0.1890   0.9880   1
1266.522   0.8759   0.1965   0.9880   1
1266.582   0.7212   0.1841   0.9880   1
1266.642   0.6544   0.1788   0.9880   1
1266.702   0.7488   0.1836   0.9881   1
1266.762   0.7178   0.1813   0.9881   1
1266.821   0.8012   0.1862   0.9881   1
1266.881   0.7602   0.1839   0.9881   1
1266.941   0.7742   0.1847   0.9882   1
1267.001   0.9865   0.1970   0.9882   1
1267.061   0.8030   0.1861   0.9882   1
1267.121   1.0286   0.1988   0.9882   1
1267.180   1.1438   0.2046   0.9883   1
1267.240   0.9746   0.1959   0.9883   1
1267.300   0.6320   0.1749   0.9883   1
1267.360   0.8856   0.1905   0.9884   1
1267.420   1.1569   0.1901   0.9884   1
1267.479   0.7725   0.1839   0.9884   1
1267.539   0.8838   0.1903   0.9884   1
1267.599   0.9680   0.1953   0.9885   1
1267.659   0.8406   0.1882   0.9885   1
1267.719   0.9238   0.1931   0.9885   1
1267.779   0.6849   0.1786   0.9885   1
1267.838   1.0908   0.2018   0.9886   1
1267.898   0.9780   0.1954   0.9886   1
1267.958   0.8085   0.1860   0.9886   1
1268.018   0.7374   0.1811   0.9886   1
1268.078   0.8356   0.1877   0.9887   1
1268.137   0.9054   0.1911   0.9887   1
1268.197   1.1150   0.2028   0.9887   1
1268.257   0.9475   0.1936   0.9887   1
1268.317   0.8495   0.1884   0.9888   1
1268.377   0.9610   0.1943   0.9888   1
1268.437   1.0594   0.1996   0.9888   1
1268.496   0.9188   0.1920   0.9888   1
1268.556   0.8341   0.1871   0.9889   1
1268.616   0.9450   0.1941   0.9889   1
1268.676   0.9643   0.1963   0.9889   1
1268.736   0.8031   0.1890   0.9889   1
1268.796   1.0678   0.2057   0.9890   1
1268.855   1.0453   0.2055   0.9890   1
1268.915   0.9720   0.2000   0.9890   1
1268.975   0.9130   0.1947   0.9890   1
1269.035   0.9777   0.1973   0.9891   1
1269.095   0.8873   0.1907   0.9891   1
1269.154   0.8108   0.1851   0.9891   1
1269.214   0.9557   0.1958   0.9891   1
1269.274   0.9438   0.1965   0.9891   1
1269.334   0.9942   0.2005   0.9892   1
1269.394   0.9566   0.1999   0.9892   1
1269.453   1.0243   0.2034   0.9892   1
1269.513   0.9366   0.1978   0.9892   1
1269.573   0.9128   0.1958   0.9893   1
1269.633   0.7436   0.1844   0.9893   1
1269.693   1.0321   0.1997   0.9893   1
1269.753   0.8814   0.1919   0.9893   1
1269.812   1.0004   0.1989   0.9894   1
1269.872   0.7960   0.1868   0.9894   1
1269.932   0.8005   0.1867   0.9894   1
1269.992   1.0397   0.1986   0.9894   1
1270.052   0.8112   0.1851   0.9894   1
1270.112   0.7298   0.1802   0.9895   1
1270.171   0.8822   0.1894   0.9895   1
1270.231   0.9774   0.1944   0.9895   1
1270.291   0.7983   0.1848   0.9895   1
1270.351   1.0457   0.1981   0.9896   1
1270.411   0.9221   0.1916   0.9896   1
1270.470   0.9202   0.1909   0.9896   1
1270.530   0.8766   0.1880   0.9896   1
1270.590   0.9740   0.1937   0.9896   1
1270.650   0.9329   0.1914   0.9897   1
1270.710   0.8353   0.1860   0.9897   1
1270.770   0.8367   0.1861   0.9897   1
1270.829   0.7664   0.1818   0.9897   1
1270.889   0.7112   0.1777   0.9898   1
1270.949   0.9785   0.2050   0.9898   1
1271.009   0.7677   0.2108   0.9898   1
1271.069   0.8061   0.2131   0.9898   1
1271.129   0.7494   0.2092   0.9898   1
1271.188   0.8975   0.2186   0.9899   1
1271.248   0.9176   0.2207   0.9899   1
1271.308   0.8967   0.2196   0.9899   1
1271.368   0.9624   0.2269   0.9899   1
1271.428   1.0952   0.2376   0.9899   1
1271.487   0.8759   0.2231   0.9900   1
1271.547   0.5653   0.1989   0.9900   1
1271.607   0.9108   0.2243   0.9900   1
1271.667   0.8223   0.2186   0.9900   1
1271.727   0.8500   0.2241   0.9900   1
1271.786   0.9464   0.2325   0.9901   1
1271.846   0.9369   0.2301   0.9901   1
1271.906   0.7465   0.2144   0.9901   1
1271.966   0.9492   0.2259   0.9901   1
1272.026   0.8712   0.2186   0.9901   1
1272.086   0.9502   0.2238   0.9902   1
1272.145   1.0282   0.2283   0.9902   1
1272.205   0.9119   0.2201   0.9902   1
1272.265   0.7903   0.2122   0.9902   1
1272.325   1.0824   0.2302   0.9902   1
1272.385   0.6951   0.2055   0.9903   1
1272.445   0.8593   0.2170   0.9903   1
1272.504   1.0725   0.2305   0.9903   1
1272.564   0.6519   0.2044   0.9903   1
1272.624   1.0154   0.2296   0.9903   1
1272.684   0.8494   0.2187   0.9904   1
1272.744   1.0711   0.2342   0.9904   1
1272.803   0.7647   0.2130   0.9904   1
1272.863   0.7505   0.2118   0.9904   1
1272.923   0.9538   0.2253   0.9904   1
1272.983   0.7653   0.2096   0.9905   1
1273.043   0.9312   0.2214   0.9905   1
1273.103   0.8397   0.2155   0.9905   1
1273.162   1.1878   0.2362   0.9905   1
1273.222   1.2240   0.2386   0.9905   1
1273.282   0.9128   0.2197   0.9906   1
1273.342   0.9834   0.2245   0.9906   1
1273.402   1.1672   0.2345   0.9906   1
1273.461   0.8929   0.2183   0.9906   1
1273.521   1.0199   0.2266   0.9906   1
1273.581   0.9980   0.2262   0.9907   1
1273.641   0.8238   0.2164   0.9907   1
1273.701   0.8797   0.2228   0.9907   1
1273.761   1.0505   0.2375   0.9907   1
1273.820   0.6673   0.2111   0.9907   1
1273.880   0.7620   0.2184   0.9907   1
1273.940   0.6611   0.2577   0.9908   1
1274.000   0.9160   0.2759   0.9908   1
1274.060   1.0841   0.2858   0.9908   1
1274.120   1.1126   0.2855   0.9908   1
1274.179   0.7242   0.2536   0.9908   1
1274.239   1.4098   0.3047   0.9909   1
1274.299   0.7448   0.2558   0.9909   1
1274.359   0.6151   0.2434   0.9909   1
1274.419   0.8872   0.2723   0.9909   1
1274.478   1.2316   0.3026   0.9909   1
1274.538   0.8997   0.2817   0.9909   1
1274.598   0.8976   0.2825   0.9910   1
1274.658   0.9756   0.2839   0.9910   1
1274.718   0.9037   0.2754   0.9910   1
1274.777   1.1186   0.2936   0.9910   1
1274.837   0.6083   0.2501   0.9910   1
1274.897   0.7070   0.2572   0.9911   1
1274.957   1.0043   0.2796   0.9911   1
1275.017   0.6785   0.2483   0.9911   1
1275.077   0.9238   0.2692   0.9911   1
1275.136   1.0633   0.2801   0.9911   1
1275.196   0.6827   0.2496   0.9911   1
1275.256   1.0937   0.2825   0.9912   1
1275.316   0.8170   0.2600   0.9912   1
1275.376   1.1981   0.2902   0.9912   1
1275.436   0.9527   0.2720   0.9912   1
1275.495   0.7892   0.2597   0.9912   1
1275.555   0.8184   0.2620   0.9912   1
1275.615   0.8190   0.2609   0.9913   1
1275.675   0.7090   0.2532   0.9913   1
1275.735   0.7628   0.2566   0.9913   1
1275.794   0.8181   0.2624   0.9913   1
1275.854   0.7099   0.2526   0.9913   1
1275.914   0.7921   0.2789   0.9914   1
1275.974   1.2046   0.4109   0.9914   1
1276.034   1.0943   0.4002   0.9915   1
1276.094   1.2058   0.4122   0.9916   1
1276.153   0.9304   0.3832   0.9917   1
1276.213   1.2015   0.4106   0.9921   1
1276.273   1.0391   0.3934   0.9926   1
1276.333   0.7053   0.3554   0.9934   1
1276.393   1.4167   0.4306   0.9944   1
1276.453   1.0877   0.3986   0.9956   1
