# Best-fit normalized data and profile from VoigtFit
# column 1 : Wavelength
# column 2 : Normalized flux
# column 3 : Normalized error
# column 4 : Best-fit profile
# column 5 : Pixel mask, 1=included, 0=excluded
1154.862   0.3303   0.5603   0.9961   0
1154.922   0.4603   0.5741   0.9939   0
1154.981   0.5888   0.5860   0.9932   0
1155.041   0.5182   0.5785   0.9930   0
1155.101   0.8246   0.6044   0.9929   0
1155.161   0.5187   0.5769   0.9928   0
1155.221   0.8226   0.6037   0.9928   0
1155.281   0.5039   0.5713   0.9928   0
1155.340   0.2618   0.5482   0.9927   0
1155.400   0.7260   0.5906   0.9927   0
1155.460   0.9634   0.6102   0.9927   0
1155.520   0.5000   0.5685   0.9927   0
1155.580   0.5007   0.5691   0.9927   0
1155.639   0.5612   0.5738   0.9927   0
1155.699   0.3854   0.5574   0.9926   0
1155.759   0.6157   0.5783   0.9926   0
1155.819   0.5030   0.5678   0.9926   0
1155.879   0.5584   0.5725   0.9926   0
1155.939   0.7287   0.5870   0.9926   0
1155.998   0.4959   0.5654   0.9926   0
1156.058   0.7268   0.5857   0.9925   0
1156.118   0.6118   0.5756   0.9925   0
1156.178   0.8973   0.6001   0.9925   0
1156.238   0.1482   0.5314   0.9925   0
1156.297   0.7218   0.5846   0.9925   0
1156.357   0.6664   0.5788   0.9925   0
1156.417   0.5502   0.5684   0.9925   0
1156.477   0.6642   0.5771   0.9924   0
1156.537   0.4901   0.5624   0.9924   0
1156.597   0.4885   0.5613   0.9924   0
1156.656   0.3159   0.5459   0.9924   0
1156.716   0.6585   0.5767   0.9924   0
1156.776   1.0560   0.6094   0.9924   0
1156.836   0.8849   0.5946   0.9923   0
1156.896   0.5496   0.5660   0.9923   0
1156.955   0.8594   0.5952   0.9923   0
1157.015   0.8132   0.5936   0.9923   0
1157.075   0.5659   0.5717   0.9923   0
1157.135   0.9817   0.6057   0.9923   0
1157.195   0.4410   0.5571   0.9922   0
1157.255   0.3840   0.5531   0.9922   0
1157.314   0.5020   0.5638   0.9922   0
1157.374   0.3091   0.5426   0.9922   0
1157.434   0.7591   0.5815   0.9922   0
1157.494   0.5882   0.5662   0.9922   0
1157.554   0.7016   0.5764   0.9921   0
1157.614   0.8163   0.5844   0.9921   0
1157.673   0.7623   0.5814   0.9921   0
1157.733   0.8202   0.5855   0.9921   0
1157.793   0.8197   0.5834   0.9921   0
1157.853   0.6510   0.5705   0.9921   0
1157.913   0.5363   0.5589   0.9920   0
1157.972   0.5947   0.5651   0.9920   0
1158.032   0.9352   0.5931   0.9920   0
1158.092   0.8792   0.6351   0.9920   0
1158.152   0.5037   0.6411   0.9920   0
1158.212   0.8052   0.6721   0.9920   0
1158.271   0.4284   0.6323   0.9919   0
1158.331   1.0308   0.6949   0.9919   0
1158.391   0.7297   0.6616   0.9919   0
1158.451   0.9352   0.6539   0.9919   0
1158.511   0.5986   0.5619   0.9919   0
1158.571   1.0460   0.6008   0.9919   0
1158.630   0.7645   0.5765   0.9918   0
1158.690   0.7059   0.5696   0.9918   0
1158.750   0.5925   0.5610   0.9918   0
1158.810   0.9802   0.5923   0.9918   0
1158.870   0.6462   0.5659   0.9918   0
1158.930   0.6480   0.5637   0.9917   0
1158.989   0.7600   0.5747   0.9917   0
1159.049   1.2052   0.6073   0.9917   0
1159.109   0.7597   0.5737   0.9917   0
1159.169   0.4826   0.5484   0.9917   0
1159.229   0.9292   0.5882   0.9917   0
1159.288   0.9860   0.5903   0.9916   0
1159.348   0.9836   0.5929   0.9916   0
1159.408   0.7028   0.5674   0.9916   0
1159.468   0.7563   0.5726   0.9916   0
1159.528   0.7566   0.5715   0.9916   0
1159.588   0.4788   0.5469   0.9915   0
1159.647   0.4241   0.5405   0.9915   0
1159.707   0.6424   0.5608   0.9915   0
1159.767   0.4177   0.5416   0.9915   0
1159.827   0.5836   0.5562   0.9915   0
1159.887   0.6363   0.5612   0.9915   0
1159.947   0.3587   0.5353   0.9914   0
1160.006   0.3582   0.5346   0.9914   0
1160.066   0.3074   0.5305   0.9914   0
1160.126   0.7141   0.5699   0.9914   0
1160.186   0.4920   0.5509   0.9914   0
1160.246   0.6771   0.5688   0.9913   0
1160.305   0.5115   0.5542   0.9913   0
1160.365   0.6942   0.5716   0.9913   0
1160.425   0.9456   0.5938   0.9913   0
1160.485   0.9954   0.5973   0.9913   0
1160.545   1.1330   0.6047   0.9912   0
1160.604   0.5480   0.5552   0.9912   0
1160.664   0.7713   0.5725   0.9912   0
1160.724   1.1058   0.5987   0.9912   0
1160.784   0.9632   0.5835   0.9912   0
1160.844   1.0150   0.5876   0.9911   0
1160.904   0.6891   0.5607   0.9911   0
1160.963   0.5790   0.5521   0.9911   0
1161.023   1.1260   0.5964   0.9911   0
1161.083   0.6693   0.6210   0.9911   0
1161.143   0.5606   0.6341   0.9910   0
1161.203   1.2873   0.6507   0.9910   0
1161.263   0.7764   0.6522   0.9910   0
1161.322   1.0671   0.6809   0.9910   0
1161.382   0.7772   0.6545   0.9910   0
1161.442   0.4870   0.5959   0.9909   0
1161.502   0.6408   0.5538   0.9909   0
1161.562   0.6946   0.5593   0.9909   0
1161.621   0.9680   0.5817   0.9909   0
1161.681   0.4776   0.5386   0.9909   0
1161.741   0.7476   0.5620   0.9908   0
1161.801   0.8564   0.5719   0.9908   0
1161.861   0.6912   0.5567   0.9908   0
1161.921   0.5814   0.5472   0.9908   0
1161.980   0.7998   0.5668   0.9908   0
1162.040   0.6893   0.5574   0.9907   0
1162.100   0.5260   0.5427   0.9907   0
1162.160   0.4158   0.5320   0.9907   0
1162.220   0.7945   0.5654   0.9907   0
1162.279   0.6869   0.5555   0.9906   0
1162.339   0.7387   0.5600   0.9906   0
1162.399   0.8990   0.5748   0.9906   0
1162.459   0.8447   0.5686   0.9906   0
1162.519   0.8420   0.5682   0.9906   0
1162.579   0.8421   0.5679   0.9905   0
1162.638   0.8968   0.5740   0.9905   0
1162.698   0.6271   0.5502   0.9905   0
1162.758   0.6832   0.5548   0.9905   0
1162.818   0.7901   0.5616   0.9905   0
1162.878   0.7358   0.5573   0.9904   0
1162.938   0.9509   0.5765   0.9904   0
1162.997   0.8413   0.5666   0.9904   0
1163.057   0.8967   0.5706   0.9904   0
1163.117   0.9509   0.5749   0.9903   0
1163.177   0.7678   0.6312   0.9903   0
1163.237   0.5010   0.6223   0.9903   0
1163.296   0.6674   0.6421   0.9903   0
1163.356   0.9780   0.6747   0.9903   0
1163.416   0.6640   0.6396   0.9902   0
1163.476   0.3642   0.6080   0.9902   0
1163.536   0.2161   0.5692   0.9902   0
1163.595   0.3807   0.5279   0.9902   0
1163.655   0.4864   0.5360   0.9901   0
1163.715   0.7520   0.5586   0.9901   0
1163.775   0.6861   0.5508   0.9901   0
1163.835   0.7368   0.5552   0.9901   0
1163.895   0.9511   0.5718   0.9900   0
1163.954   0.4693   0.5300   0.9900   0
1164.014   0.9535   0.5723   0.9900   0
1164.074   1.0042   0.5768   0.9900   0
1164.134   0.8434   0.5629   0.9899   0
1164.194   0.4172   0.5255   0.9899   0
1164.254   1.1614   0.5871   0.9899   1
1164.313   0.3093   0.5151   0.9899   1
1164.373   0.6278   0.5427   0.9899   1
1164.433   0.7895   0.5569   0.9898   1
1164.493   0.6300   0.5439   0.9898   1
1164.553   0.5782   0.5380   0.9898   1
1164.612   1.0552   0.5788   0.9898   1
1164.672   0.7353   0.5528   0.9897   1
1164.732   1.4796   0.6099   0.9897   1
1164.792   0.7309   0.5514   0.9897   1
1164.852   0.8365   0.5596   0.9897   1
1164.911   0.5708   0.5371   0.9896   1
1164.971   1.0469   0.5772   0.9896   1
1165.031   0.7835   0.5546   0.9896   1
1165.091   0.6791   0.5463   0.9896   1
1165.151   0.9426   0.5682   0.9895   1
1165.211   0.8890   0.5625   0.9895   1
1165.271   0.4129   0.5214   0.9895   1
1165.330   0.9478   0.5676   0.9895   1
1165.390   0.5441   0.5368   0.9894   1
1165.450   0.9374   0.5721   0.9894   1
1165.510   0.7605   0.5553   0.9894   1
1165.570   1.1518   0.5897   0.9894   1
1165.629   1.1046   0.5854   0.9893   1
1165.689   0.8808   0.5666   0.9893   1
1165.749   0.8701   0.5638   0.9893   1
1165.809   0.9634   0.5697   0.9892   1
1165.869   1.2037   0.5832   0.9892   1
1165.928   0.5679   0.5326   0.9892   1
1165.988   1.1461   0.5829   0.9892   1
1166.048   0.4070   0.5193   0.9891   1
1166.108   1.0347   0.5731   0.9891   1
1166.168   1.1403   0.5803   0.9891   1
1166.228   0.7178   0.5461   0.9891   1
1166.287   0.8743   0.5586   0.9890   1
1166.347   0.6043   0.6079   0.9890   1
1166.407   0.6060   0.6191   0.9890   1
1166.467   1.2361   0.6783   0.9890   1
1166.527   1.1648   0.6702   0.9889   1
1166.587   1.0957   0.6644   0.9889   1
1166.646   0.6742   0.6236   0.9889   1
1166.706   0.3742   0.5649   0.9888   1
1166.766   0.7051   0.5432   0.9888   1
1166.826   0.8630   0.5548   0.9888   1
1166.886   0.6535   0.5382   0.9888   1
1166.945   1.0721   0.5728   0.9887   1
1167.005   1.0723   0.5721   0.9887   1
1167.065   0.5501   0.5283   0.9887   1
1167.125   0.9683   0.5638   0.9886   1
1167.185   0.7073   0.5418   0.9886   1
1167.245   0.6020   0.5332   0.9886   1
1167.304   1.1254   0.5764   0.9886   1
1167.364   0.6568   0.5363   0.9885   1
1167.424   1.1788   0.5787   0.9885   1
1167.484   0.6048   0.5329   0.9885   1
1167.544   0.6572   0.5367   0.9884   1
1167.603   0.8644   0.5541   0.9884   1
1167.663   0.6060   0.5321   0.9884   1
1167.723   0.9723   0.5626   0.9884   1
1167.783   0.9732   0.5623   0.9883   1
1167.843   0.9225   0.5568   0.9883   1
1167.903   0.4015   0.5132   0.9883   1
1167.962   0.7135   0.5390   0.9882   1
1168.022   0.7141   0.5396   0.9882   1
1168.082   0.6616   0.5359   0.9882   0
1168.142   0.6619   0.5350   0.9881   0
1168.202   0.9711   0.5599   0.9881   0
1168.261   0.5586   0.5256   0.9881   0
1168.321   0.7665   0.5438   0.9881   0
1168.381   0.5064   0.5212   0.9880   0
1168.441   0.2983   0.5013   0.9880   0
1168.501   0.7810   0.5460   0.9880   0
1168.561   0.6363   0.5349   0.9879   0
1168.620   0.2613   0.5011   0.9879   0
1168.680   0.4875   0.5243   0.9879   0
1168.740   0.4975   0.5275   0.9878   0
1168.800   0.4421   0.5218   0.9878   0
1168.860   0.7294   0.5496   0.9878   0
1168.919   0.6586   0.5417   0.9877   0
1168.979   0.6461   0.5385   0.9877   0
1169.039   0.5675   0.5285   0.9877   0
1169.099   0.5151   0.5218   0.9876   0
1169.159   0.7077   0.5382   0.9876   0
1169.219   0.7483   0.5395   0.9876   0
1169.278   0.8528   0.5498   0.9876   0
1169.338   0.4390   0.5124   0.9875   0
1169.398   1.0062   0.5616   0.9875   0
1169.458   0.5942   0.5274   0.9875   0
1169.518   0.8530   0.5479   0.9874   0
1169.578   0.4915   0.5168   0.9874   0
1169.637   0.6425   0.5306   0.9874   0
1169.697   0.6442   0.5302   0.9873   0
1169.757   0.8488   0.5476   0.9873   0
1169.817   0.6456   0.5292   0.9873   0
1169.877   0.4402   0.5118   0.9872   0
1169.936   0.4926   0.5156   0.9872   0
1169.996   0.5454   0.5208   0.9872   0
1170.056   0.6477   0.5302   0.9871   0
1170.116   0.8015   0.5428   0.9871   0
1170.176   0.4420   0.5119   0.9870   0
1170.235   0.6977   0.5345   0.9870   0
1170.295   0.4393   0.5100   0.9870   0
1170.355   1.0583   0.5632   0.9869   0
1170.415   0.9020   0.5503   0.9869   0
1170.475   1.1074   0.5662   0.9869   0
1170.535   0.9005   0.5484   0.9868   0
1170.594   0.7965   0.5406   0.9868   0
1170.654   1.3082   0.5809   0.9868   0
1170.714   0.7967   0.5413   0.9867   0
1170.774   0.8988   0.5492   0.9867   0
1170.834   0.8460   0.5448   0.9867   0
1170.894   0.5914   0.5226   0.9866   0
1170.953   0.8975   0.5490   0.9866   0
1171.013   0.4907   0.5129   0.9866   0
1171.073   0.7960   0.5403   0.9865   0
1171.133   0.5899   0.5223   0.9865   0
1171.193   0.5395   0.5180   0.9864   0
1171.252   0.8980   0.5482   0.9864   0
1171.312   0.6407   0.5266   0.9864   0
1171.372   0.2322   0.4907   0.9863   0
1171.432   0.8458   0.5444   0.9863   0
1171.492   0.4872   0.5143   0.9863   0
1171.552   0.5905   0.5229   0.9862   0
1171.611   0.4980   0.5157   0.9862   0
1171.671   0.4548   0.5137   0.9861   0
1171.731   0.5698   0.5246   0.9861   0
1171.791   0.9488   0.5588   0.9861   0
1171.851   0.5183   0.5212   0.9860   0
1171.911   0.5680   0.5240   0.9860   0
1171.970   0.5687   0.5241   0.9860   0
1172.030   0.8917   0.5534   0.9859   0
1172.090   0.9324   0.5531   0.9859   0
1172.150   0.7548   0.5377   0.9858   0
1172.210   0.6926   0.5311   0.9858   0
1172.269   0.4366   0.5088   0.9858   0
1172.329   0.6402   0.5277   0.9857   0
1172.389   0.8967   0.5471   0.9857   0
1172.449   0.7948   0.5390   0.9856   0
1172.509   0.4397   0.5099   0.9856   0
1172.568   0.7959   0.5403   0.9856   0
1172.628   0.8481   0.5453   0.9855   0
1172.688   0.7971   0.5404   0.9855   0
1172.748   0.3887   0.5055   0.9854   0
1172.808   0.4409   0.5104   0.9854   0
1172.868   0.6441   0.5278   0.9854   0
1172.927   0.5927   0.5241   0.9853   0
1172.987   0.7966   0.5414   0.9853   0
1173.047   0.7978   0.5407   0.9852   0
1173.107   0.6437   0.5292   0.9852   0
1173.167   0.7959   0.5421   0.9851   0
1173.227   0.5924   0.5240   0.9851   0
1173.286   0.7441   0.5379   0.9851   0
1173.346   0.5887   0.4857   0.9850   0
1173.406   0.8472   0.5468   0.9850   0
1173.466   0.4905   0.5152   0.9849   0
1173.526   0.4904   0.5157   0.9849   0
1173.585   0.5936   0.5241   0.9848   0
1173.645   0.5404   0.5210   0.9848   0
1173.705   1.0236   0.5628   0.9848   0
1173.765   0.5099   0.5207   0.9847   0
1173.825   0.7838   0.5439   0.9847   0
1173.885   0.6252   0.5341   0.9846   0
1173.944   0.6203   0.5309   0.9846   0
1174.004   0.4060   0.5142   0.9845   0
1174.064   0.8952   0.5569   0.9845   0
1174.124   0.7319   0.5418   0.9844   0
1174.184   0.3514   0.5065   0.9844   0
1174.243   0.8111   0.5461   0.9844   0
1174.303   0.4426   0.5125   0.9843   0
1174.363   0.6992   0.5349   0.9843   0
1174.423   0.4428   0.5132   0.9842   0
1174.483   0.4924   0.5184   0.9842   0
1174.543   0.5922   0.5260   0.9841   0
1174.602   0.4889   0.5184   0.9841   0
1174.662   0.2855   0.4991   0.9840   0
1174.722   0.4392   0.5145   0.9840   0
1174.782   0.6980   0.5368   0.9839   0
1174.842   0.3944   0.5090   0.9839   0
1174.901   0.1375   0.4853   0.9838   0
1174.961   0.3432   0.5060   0.9838   0
1175.021   0.1883   0.4907   0.9837   0
1175.081   0.3948   0.5107   0.9837   0
1175.141   0.3428   0.5065   0.9837   0
1175.201   0.3913   0.5104   0.9836   0
1175.260   0.4970   0.5202   0.9836   0
1175.320   0.6515   0.5336   0.9835   0
1175.380   0.6481   0.5336   0.9835   0
1175.440   0.5966   0.5295   0.9834   0
1175.500   0.2893   0.5025   0.9834   0
1175.559   0.3934   0.5116   0.9833   0
1175.619   0.4463   0.5171   0.9833   0
1175.679   0.5002   0.5217   0.9832   0
1175.739   0.3970   0.5120   0.9832   0
1175.799   0.4496   0.5171   0.9831   0
1175.859   0.5006   0.5217   0.9831   0
1175.918   0.3975   0.5134   0.9830   0
1175.978   0.2949   0.5042   0.9830   0
1176.038   0.1407   0.4889   0.9829   0
1176.098   0.1915   0.4948   0.9828   0
1176.158   0.2955   0.5045   0.9828   0
1176.218   0.3492   0.5104   0.9827   0
1176.277   0.0877   0.4851   0.9827   0
1176.337   0.1383   0.4908   0.9826   0
1176.397   0.2937   0.5053   0.9826   0
1176.457   0.4464   0.5194   0.9825   0
1176.517   0.2927   0.5060   0.9825   0
1176.576   0.1359   0.4908   0.9824   0
1176.636   0.0830   0.4863   0.9824   0
1176.696   0.2353   0.5014   0.9823   0
1176.756   0.1836   0.4969   0.9823   0
1176.816   0.2350   0.5020   0.9822   0
1176.875   0.1352   0.4931   0.9822   0
1176.935   0.1378   0.4951   0.9821   0
1176.995   0.1415   0.4959   0.9820   0
1177.055   0.2579   0.5096   0.9820   0
1177.115   0.3252   0.5175   0.9819   0
1177.175   -0.0214   0.4815   0.9819   0
1177.234   0.3277   0.5174   0.9818   0
1177.294   0.0926   0.4934   0.9818   0
1177.354   0.2587   0.5089   0.9817   0
1177.414   0.1452   0.4976   0.9816   0
1177.474   0.1925   0.5017   0.9816   0
1177.534   0.1906   0.5011   0.9815   0
1177.593   0.1891   0.5006   0.9815   0
1177.653   0.0324   0.4854   0.9814   0
1177.713   0.1910   0.5011   0.9814   0
1177.773   0.0875   0.4912   0.9813   0
1177.833   0.1409   0.4967   0.9812   0
1177.892   0.0358   0.4864   0.9812   0
1177.952   0.2463   0.5075   0.9811   0
1178.012   0.3470   0.5169   0.9811   0
1178.072   0.2923   0.5127   0.9810   0
1178.132   0.2403   0.5079   0.9809   0
1178.192   0.2929   0.5131   0.9809   0
1178.251   0.1905   0.5036   0.9808   0
1178.311   0.4027   0.5234   0.9808   0
1178.371   0.3508   0.5191   0.9807   0
1178.431   0.1404   0.4994   0.9806   0
1178.491   0.3521   0.5192   0.9806   0
1178.551   0.2476   0.5099   0.9805   0
1178.610   0.3028   0.5158   0.9804   0
1178.670   0.4625   0.5309   0.9804   0
1178.730   0.3581   0.5201   0.9803   0
1178.790   0.3055   0.5159   0.9803   0
1178.850   0.4637   0.5310   0.9802   0
1178.909   0.8333   0.5646   0.9801   0
1178.969   0.0403   0.4910   0.9801   0
1179.029   0.4139   0.5268   0.9800   0
1179.089   0.3601   0.5205   0.9799   0
1179.149   0.5165   0.5355   0.9799   0
1179.208   0.7266   0.5536   0.9798   0
1179.268   0.7219   0.5544   0.9797   0
1179.328   0.5115   0.5353   0.9797   0
1179.388   0.4523   0.5301   0.9796   0
1179.448   0.6099   0.5441   0.9795   0
1179.508   0.4496   0.5294   0.9795   0
1179.568   0.7109   0.5505   0.9794   0
1179.627   1.0241   0.5748   0.9793   0
1179.687   0.7091   0.5498   0.9793   0
1179.747   0.4415   0.5280   0.9792   0
1179.807   0.4907   0.5323   0.9791   0
1179.867   0.5939   0.5410   0.9791   0
1179.926   0.6465   0.5452   0.9790   0
1179.986   0.5402   0.5368   0.9789   0
1180.046   0.3945   0.5249   0.9788   0
1180.106   0.9571   0.5769   0.9788   0
1180.166   0.6318   0.5478   0.9787   0
1180.225   0.4592   0.5327   0.9786   0
1180.285   0.5682   0.5411   0.9786   0
1180.345   0.6762   0.5507   0.9785   0
1180.405   0.5726   0.5407   0.9784   0
1180.465   0.3496   0.5193   0.9783   0
1180.525   0.6099   0.5414   0.9783   1
1180.584   0.3871   0.5200   0.9782   1
1180.644   0.9631   0.5692   0.9781   1
1180.704   0.7031   0.5486   0.9780   1
1180.764   0.8089   0.5563   0.9780   1
1180.824   0.6034   0.5368   0.9779   1
1180.884   0.6548   0.5437   0.9778   1
1180.943   0.4961   0.5284   0.9777   1
1181.003   0.6016   0.5373   0.9777   1
1181.063   0.6005   0.5376   0.9776   1
1181.123   0.4985   0.5286   0.9775   1
1181.183   0.5520   0.5328   0.9774   1
1181.242   0.5534   0.5324   0.9774   1
1181.302   1.0725   0.5752   0.9773   1
1181.362   1.0705   0.5734   0.9772   1
1181.422   0.6041   0.5363   0.9771   1
1181.482   0.8113   0.5538   0.9770   1
1181.542   1.0220   0.5705   0.9770   1
1181.601   0.7112   0.5450   0.9769   1
1181.661   1.1231   0.5754   0.9768   1
1181.721   1.0690   0.5738   0.9767   1
1181.781   0.6543   0.5370   0.9766   1
1181.841   0.7058   0.5435   0.9766   1
1181.900   1.0689   0.5713   0.9765   1
1181.960   0.9147   0.5593   0.9764   1
1182.020   0.8106   0.5498   0.9763   1
1182.080   0.5009   0.5243   0.9762   1
1182.140   0.6741   0.5403   0.9761   1
1182.200   0.4643   0.5234   0.9761   1
1182.259   0.7378   0.5494   0.9760   1
1182.319   1.2711   0.5911   0.9759   1
1182.379   0.7820   0.5501   0.9758   1
1182.439   0.9398   0.5627   0.9757   1
1182.499   1.2061   0.5832   0.9756   1
1182.558   0.5038   0.5248   0.9755   1
1182.618   0.7062   0.5397   0.9755   1
1182.678   0.6899   0.5378   0.9754   1
1182.738   0.6866   0.5353   0.9753   1
1182.798   0.7890   0.5444   0.9752   1
1182.858   0.5850   0.5267   0.9751   1
1182.917   0.5848   0.5256   0.9750   1
1182.977   0.6875   0.5349   0.9749   1
1183.037   0.9425   0.5559   0.9748   1
1183.097   0.9446   0.5549   0.9747   1
1183.157   1.1474   0.5710   0.9746   1
1183.216   0.8431   0.5467   0.9746   1
1183.276   0.9430   0.5536   0.9745   1
1183.336   1.0442   0.5625   0.9744   1
1183.396   1.0927   0.5664   0.9743   1
1183.456   0.9386   0.5533   0.9742   1
1183.516   0.9368   0.5518   0.9741   1
1183.575   1.1410   0.5681   0.9740   1
1183.635   1.0408   0.5594   0.9739   1
1183.695   0.8401   0.5412   0.9738   1
1183.755   0.9897   0.5533   0.9737   1
1183.815   0.9894   0.5540   0.9736   1
1183.875   0.6349   0.5236   0.9735   1
1183.934   0.9352   0.5488   0.9734   1
1183.994   0.8825   0.5435   0.9733   1
1184.054   0.5786   0.5179   0.9732   1
1184.114   0.6310   0.5221   0.9731   1
1184.174   0.6278   0.5214   0.9730   1
1184.233   0.9800   0.5500   0.9729   1
1184.293   1.4313   0.5835   0.9728   1
1184.353   0.5801   0.5158   0.9727   1
1184.413   1.1791   0.5642   0.9726   1
1184.473   1.0788   0.5569   0.9725   1
1184.532   0.4795   0.5062   0.9724   1
1184.592   0.9256   0.5423   0.9723   1
1184.652   0.8240   0.5330   0.9722   1
1184.712   0.6229   0.5172   0.9721   1
1184.772   0.9711   0.5434   0.9720   1
1184.832   0.7719   0.5295   0.9719   1
1184.891   1.0226   0.5480   0.9718   1
1184.951   0.8249   0.5314   0.9717   1
1185.011   0.4772   0.5023   0.9715   1
1185.071   0.7240   0.5239   0.9714   1
1185.131   0.7724   0.5256   0.9713   1
1185.191   0.4266   0.4951   0.9712   1
1185.250   0.8727   0.5342   0.9711   1
1185.310   0.5384   0.5047   0.9710   1
1185.370   0.6527   0.5179   0.9709   1
1185.430   0.5964   0.5136   0.9708   1
1185.490   0.7076   0.4859   0.9706   1
1185.549   0.6763   0.5202   0.9705   1
1185.609   0.7830   0.5298   0.9704   1
1185.669   1.1028   0.5554   0.9703   1
1185.729   0.7768   0.5278   0.9702   1
1185.789   0.9195   0.5386   0.9701   1
1185.849   0.5957   0.5095   0.9700   1
1185.908   0.8802   0.5311   0.9698   1
1185.968   0.8097   0.5208   0.9697   1
1186.028   0.7130   0.5126   0.9696   1
1186.088   0.7117   0.5120   0.9695   1
1186.148   0.7588   0.5170   0.9694   1
1186.208   0.7072   0.5130   0.9692   1
1186.267   0.9007   0.5285   0.9691   1
1186.327   0.8043   0.5192   0.9690   1
1186.387   0.8530   0.5232   0.9689   1
1186.447   0.6120   0.5016   0.9687   1
1186.507   1.0427   0.5356   0.9686   1
1186.566   0.5114   0.4925   0.9685   1
1186.626   0.2685   0.4697   0.9684   1
1186.686   0.5089   0.4919   0.9682   1
1186.746   0.7489   0.5121   0.9681   1
1186.806   0.6037   0.4994   0.9680   1
1186.865   0.9379   0.5252   0.9678   1
1186.925   0.8903   0.5216   0.9677   1
1186.985   0.8405   0.5166   0.9676   1
1187.045   0.8380   0.5146   0.9674   1
1187.105   1.0796   0.5350   0.9673   1
1187.165   0.6515   0.5005   0.9672   1
1187.224   0.9361   0.5241   0.9670   1
1187.284   0.7914   0.5123   0.9669   1
1187.344   1.1727   0.5424   0.9668   1
1187.404   0.9798   0.5263   0.9666   1
1187.464   0.5507   0.4899   0.9665   1
1187.524   0.5984   0.4940   0.9664   1
1187.583   1.3561   0.5524   0.9662   1
1187.643   0.7388   0.5059   0.9661   1
1187.703   1.0222   0.5286   0.9659   1
1187.763   0.9282   0.5201   0.9658   1
1187.823   0.8328   0.5118   0.9656   1
1187.882   0.7845   0.5067   0.9655   1
1187.942   0.7843   0.5086   0.9654   1
1188.002   0.9278   0.5188   0.9652   1
1188.062   0.8780   0.5148   0.9651   1
1188.122   0.4977   0.4824   0.9649   1
1188.182   0.6847   0.4984   0.9648   1
1188.241   0.9671   0.5210   0.9646   1
1188.301   0.7290   0.5011   0.9645   1
1188.361   1.0579   0.5280   0.9643   1
1188.421   0.6852   0.4982   0.9642   1
1188.481   0.8067   0.5102   0.9640   1
1188.540   0.7659   0.5067   0.9639   1
1188.600   0.6192   0.4956   0.9637   1
1188.660   0.6646   0.4977   0.9635   1
1188.720   0.8135   0.5106   0.9634   1
1188.780   0.9598   0.5216   0.9632   1
1188.840   0.8064   0.5089   0.9631   1
1188.899   1.1248   0.5329   0.9629   1
1188.959   1.0499   0.5243   0.9627   1
1189.019   0.6252   0.4897   0.9626   1
1189.079   1.0918   0.5267   0.9624   1
1189.139   0.7170   0.4968   0.9623   1
1189.198   0.9516   0.5153   0.9621   1
1189.258   0.6726   0.4930   0.9619   1
1189.318   0.7685   0.4986   0.9618   1
1189.378   0.8164   0.5042   0.9616   1
1189.438   0.6744   0.4919   0.9614   1
1189.498   1.0926   0.5229   0.9612   1
1189.557   1.0439   0.5210   0.9611   1
1189.617   0.6277   0.4877   0.9609   0
1189.677   1.0012   0.5179   0.9607   0
1189.737   0.2102   0.4500   0.9605   0
1189.797   0.6292   0.4869   0.9604   0
1189.856   1.0964   0.5221   0.9602   0
1189.916   0.3589   0.4619   0.9600   0
1189.976   0.8206   0.5017   0.9598   0
1190.036   0.8214   0.5022   0.9597   0
1190.096   0.5404   0.4779   0.9595   0
1190.156   0.5406   0.4774   0.9593   0
1190.215   0.1708   0.4432   0.9591   0
1190.275   0.1706   0.4432   0.9589   0
1190.335   0.1234   0.4381   0.9587   0
1190.395   -0.0138   0.4242   0.9585   0
1190.455   0.0340   0.4285   0.9583   0
1190.515   0.1251   0.4379   0.9582   0
1190.574   0.0796   0.4339   0.9580   0
1190.634   0.1756   0.4444   0.9578   0
1190.694   0.3678   0.4628   0.9576   0
1190.754   0.2729   0.4535   0.9574   0
1190.814   0.5610   0.4779   0.9572   0
1190.873   0.3207   0.4573   0.9570   0
1190.933   0.3187   0.4569   0.9568   0
1190.993   0.4532   0.4676   0.9566   0
1191.053   0.3973   0.4617   0.9564   0
1191.113   0.3974   0.4610   0.9562   0
1191.172   0.5807   0.4769   0.9560   0
1191.232   0.2586   0.4473   0.9558   0
1191.292   0.3501   0.4562   0.9555   0
1191.352   0.4416   0.4640   0.9553   0
1191.412   0.4870   0.4679   0.9551   0
1191.472   0.6226   0.4780   0.9549   0
1191.531   0.4852   0.4664   0.9547   0
1191.591   0.7145   0.4869   0.9545   0
1191.651   0.4398   0.4626   0.9543   0
1191.711   0.4866   0.4661   0.9540   0
1191.771   0.4408   0.4618   0.9538   0
1191.831   0.2135   0.4406   0.9536   0
1191.890   0.3950   0.4571   0.9534   0
1191.950   0.2146   0.4402   0.9531   0
1192.010   0.1678   0.4358   0.9529   0
1192.070   0.1673   0.4356   0.9527   0
1192.130   0.1661   0.4354   0.9525   0
1192.189   0.1174   0.4307   0.9522   0
1192.249   0.0254   0.4215   0.9520   0
1192.309   0.0689   0.4257   0.9518   0
1192.369   0.0689   0.4255   0.9515   0
1192.429   -0.0227   0.4163   0.9513   0
1192.489   0.0237   0.4205   0.9510   0
1192.548   0.1133   0.4292   0.9508   0
1192.608   0.0221   0.4202   0.9505   0
1192.668   0.1565   0.4329   0.9503   0
1192.728   0.3372   0.4496   0.9500   0
1192.788   0.3356   0.4486   0.9498   0
1192.848   0.2451   0.4410   0.9495   0
1192.907   0.5161   0.4645   0.9493   0
1192.967   0.3782   0.4526   0.9490   0
1193.027   0.3327   0.4468   0.9488   0
1193.087   0.1995   0.4360   0.9485   0
1193.147   0.1121   0.4271   0.9483   0
1193.206   0.1580   0.4312   0.9480   0
1193.266   0.0693   0.4225   0.9477   0
1193.326   -0.0215   0.4131   0.9475   0
1193.386   0.0675   0.4217   0.9472   0
1193.446   0.1993   0.4344   0.9469   0
1193.505   0.0170   0.4169   0.9467   0
1193.565   0.2436   0.4383   0.9464   0
1193.625   0.3786   0.4503   0.9461   0
1193.685   0.3341   0.4456   0.9458   0
1193.745   0.3427   0.4480   0.9455   0
1193.805   0.5907   0.4720   0.9452   0
1193.864   0.3620   0.4524   0.9450   0
1193.924   0.4646   0.4630   0.9447   0
1193.984   0.3742   0.4544   0.9444   0
1194.044   0.1215   0.4280   0.9441   0
1194.104   0.5081   0.4656   0.9438   0
1194.164   0.1686   0.4318   0.9435   0
1194.223   0.5878   0.4699   0.9432   0
1194.283   0.2057   0.4343   0.9429   0
1194.343   0.6446   0.4710   0.9426   0
1194.403   0.2385   0.4348   0.9423   0
1194.463   0.2431   0.4348   0.9420   0
1194.522   0.1115   0.4221   0.9417   0
1194.582   0.6000   0.4659   0.9413   0
1194.642   0.4232   0.4495   0.9410   0
1194.702   0.3354   0.4422   0.9407   0
1194.762   0.2925   0.4386   0.9404   0
1194.822   0.2914   0.4384   0.9401   0
1194.881   0.2914   0.4378   0.9397   0
1194.941   0.1131   0.4209   0.9394   0
1195.001   0.2458   0.4330   0.9391   0
1195.061   0.1113   0.4201   0.9387   0
1195.121   0.2430   0.4333   0.9384   0
1195.180   -0.0244   0.4070   0.9381   0
1195.240   0.0649   0.4155   0.9377   0
1195.300   0.1147   0.4198   0.9374   0
1195.360   -0.0161   0.4065   0.9370   0
1195.420   0.0705   0.4153   0.9367   0
1195.480   0.0235   0.4105   0.9363   0
1195.539   0.1558   0.4236   0.9360   0
1195.599   0.1543   0.4229   0.9356   0
1195.659   0.4191   0.4472   0.9352   0
1195.719   0.5063   0.4542   0.9349   0
1195.779   0.4184   0.4466   0.9345   0
1195.839   0.3747   0.4430   0.9341   0
1195.898   0.4631   0.4502   0.9338   0
1195.958   0.3303   0.4383   0.9334   0
1196.018   0.3312   0.4378   0.9330   0
1196.078   0.3757   0.4417   0.9326   0
1196.138   0.3774   0.4422   0.9322   0
1196.197   0.2901   0.4333   0.9318   0
1196.257   0.6835   0.4680   0.9314   0
1196.317   0.7270   0.4719   0.9310   0
1196.377   0.5503   0.4559   0.9306   0
1196.437   0.4199   0.4445   0.9302   0
1196.496   0.2004   0.4240   0.9298   1
1196.556   0.3319   0.4372   0.9294   1
1196.616   0.3314   0.4365   0.9290   1
1196.676   0.8994   0.4842   0.9286   1
1196.736   0.8572   0.4809   0.9281   1
1196.796   0.5152   0.4530   0.9277   1
1196.855   0.7935   0.4782   0.9273   1
1196.915   0.8566   0.4849   0.9269   1
1196.975   0.7641   0.4758   0.9264   1
1197.035   0.6661   0.4675   0.9260   1
1197.095   0.9805   0.4929   0.9255   1
1197.155   0.8433   0.4816   0.9251   1
1197.214   1.0334   0.4957   0.9246   1
1197.274   0.9840   0.4937   0.9242   1
1197.334   0.3778   0.4390   0.9237   1
1197.394   1.4189   0.5201   0.9232   1
1197.454   0.6371   0.4603   0.9228   1
1197.513   0.9416   0.4842   0.9223   1
1197.573   0.6788   0.4632   0.9218   1
1197.633   0.7198   0.4668   0.9213   1
1197.693   1.0604   0.4559   0.9208   1
1197.753   1.0659   0.4932   0.9203   1
1197.812   0.8500   0.4755   0.9199   1
1197.872   1.1969   0.5014   0.9193   1
1197.932   1.0647   0.4932   0.9188   1
1197.992   1.1494   0.4976   0.9183   1
1198.052   0.5865   0.4552   0.9178   1
1198.112   0.7162   0.4648   0.9173   1
1198.172   1.0174   0.4894   0.9168   1
1198.231   0.8440   0.4744   0.9162   1
1198.291   0.8845   0.4784   0.9157   1
1198.351   0.9246   0.4818   0.9152   1
1198.411   0.9248   0.4808   0.9146   1
1198.471   0.6649   0.4584   0.9141   1
1198.530   0.7953   0.4710   0.9135   1
1198.590   0.6698   0.4599   0.9130   0
1198.650   0.6255   0.4556   0.9124   0
1198.710   0.6234   0.4563   0.9118   0
1198.770   0.9638   0.4834   0.9112   0
1198.829   0.7452   0.4660   0.9107   0
1198.889   0.5891   0.4542   0.9101   0
1198.949   0.5522   0.4521   0.9095   0
1199.009   0.8297   0.4764   0.9089   0
1199.069   0.4677   0.4455   0.9083   0
1199.129   0.7295   0.4672   0.9077   0
1199.188   0.7782   0.4702   0.9070   0
1199.248   0.3318   0.4321   0.9064   0
1199.308   0.5601   0.4516   0.9058   0
1199.368   0.3307   0.4314   0.9052   0
1199.428   0.2739   0.4235   0.9045   0
1199.488   0.1023   0.4079   0.9039   0
1199.547   0.3572   0.4307   0.9032   0
1199.607   0.1880   0.4150   0.9025   0
1199.667   0.2334   0.4194   0.9019   0
1199.727   0.2348   0.4189   0.9012   0
1199.787   0.3219   0.4267   0.9005   0
1199.846   0.5774   0.4488   0.8998   0
1199.906   0.7923   0.4664   0.8991   0
1199.966   0.6223   0.4518   0.8984   0
1200.026   0.6249   0.4529   0.8977   0
1200.086   0.3263   0.4256   0.8970   0
1200.146   0.2833   0.4224   0.8963   0
1200.205   0.1966   0.4143   0.8956   0
1200.265   0.1095   0.4058   0.8948   0
1200.325   0.4051   0.4333   0.8941   0
1200.385   0.4895   0.4391   0.8933   0
1200.445   0.4468   0.4360   0.8926   0
1200.504   0.3200   0.4237   0.8918   0
1200.564   0.4477   0.4363   0.8910   0
1200.624   0.2357   0.4162   0.8902   0
1200.684   0.0640   0.4003   0.8894   0
1200.744   0.2754   0.4195   0.8886   0
1200.804   0.1493   0.4080   0.8878   0
1200.863   0.4880   0.4382   0.8870   0
1200.923   0.4876   0.4380   0.8862   0
1200.983   0.1915   0.4118   0.8853   0
1201.043   0.6135   0.4479   0.8845   0
1201.103   0.7808   0.4630   0.8836   0
1201.162   0.6540   0.4517   0.8828   0
1201.222   0.4437   0.4330   0.8819   0
1201.282   0.4448   0.4328   0.8810   0
1201.342   0.2773   0.4185   0.8801   0
1201.402   0.1918   0.4107   0.8792   0
1201.462   0.4036   0.4293   0.8783   0
1201.521   0.1080   0.4022   0.8774   0
1201.581   0.0219   0.3938   0.8764   0
1201.641   0.1487   0.4059   0.8755   0
1201.701   0.1062   0.4020   0.8745   0
1201.761   0.1059   0.4018   0.8736   0
1201.820   0.1902   0.4094   0.8726   0
1201.880   0.2740   0.4173   0.8716   0
1201.940   0.2310   0.4130   0.8706   0
1202.000   0.1463   0.4050   0.8696   0
1202.060   0.2332   0.4131   0.8686   0
1202.120   0.2388   0.4148   0.8675   0
1202.179   0.2445   0.4163   0.8665   0
1202.239   0.0730   0.4000   0.8654   0
1202.299   0.1189   0.4049   0.8644   0
1202.359   0.1193   0.4044   0.8633   0
1202.419   0.0732   0.3996   0.8622   0
1202.479   0.0713   0.3991   0.8611   0
1202.538   0.0267   0.3941   0.8600   0
1202.598   0.1171   0.4032   0.8588   0
1202.658   0.0681   0.3975   0.8577   0
1202.718   0.1517   0.4052   0.8565   0
1202.778   0.0237   0.3916   0.8553   0
1202.837   0.1069   0.3993   0.8542   0
1202.897   0.0677   0.3952   0.8529   0
1202.957   0.1099   0.3993   0.8517   0
1203.017   0.2363   0.4107   0.8505   0
1203.077   0.2371   0.4114   0.8492   0
1203.136   0.2788   0.4148   0.8480   0
1203.196   0.2778   0.4143   0.8467   0
1203.256   0.2761   0.4139   0.8454   0
1203.316   0.4409   0.4297   0.8441   0
1203.376   0.1486   0.4024   0.8428   0
1203.436   0.2724   0.4141   0.8414   0
1203.495   0.2291   0.4098   0.8401   0
1203.555   0.2685   0.4127   0.8387   0
1203.615   0.1440   0.4015   0.8373   0
1203.675   0.1881   0.4056   0.8359   0
1203.735   0.2310   0.4093   0.8345   0
1203.795   0.2295   0.4097   0.8330   0
1203.854   0.2690   0.4135   0.8316   0
1203.914   0.3070   0.4160   0.8301   0
1203.974   0.5550   0.4379   0.8286   0
1204.034   0.3053   0.4165   0.8271   0
1204.094   0.5545   0.4378   0.8255   0
1204.153   0.5539   0.4371   0.8240   0
1204.213   0.4710   0.4309   0.8224   0
1204.273   0.4312   0.4260   0.8208   0
1204.333   0.4323   0.4266   0.8192   0
1204.393   0.9275   0.4670   0.8175   0
1204.453   0.3868   0.4221   0.8159   0
1204.512   0.4323   0.4268   0.8142   0
1204.572   0.4336   0.4263   0.8125   0
1204.632   0.6382   0.4438   0.8107   0
1204.692   0.4723   0.4299   0.8090   0
1204.752   0.7620   0.4531   0.8072   0
1204.812   0.5130   0.4333   0.8054   0
1204.871   0.5135   0.4328   0.8036   0
1204.931   0.6391   0.4433   0.8017   0
1204.991   0.5548   0.4363   0.7999   0
1205.051   0.5953   0.4391   0.7980   0
1205.111   0.3878   0.4215   0.7960   0
1205.170   0.3872   0.4211   0.7941   0
1205.230   0.3481   0.4191   0.7921   0
1205.290   0.1447   0.4006   0.7901   0
1205.350   0.4958   0.4343   0.7881   0
1205.410   0.3191   0.4171   0.7860   0
1205.469   0.4075   0.4253   0.7839   0
1205.529   0.2755   0.4128   0.7818   0
1205.589   0.2371   0.4094   0.7797   0
1205.649   0.5372   0.4357   0.7775   0
1205.709   0.4032   0.4228   0.7753   0
1205.769   0.2713   0.4109   0.7730   0
1205.828   0.4324   0.4237   0.7708   0
1205.888   0.3066   0.4130   0.7685   0
1205.948   0.1808   0.4016   0.7661   0
1206.008   0.0983   0.3938   0.7637   0
1206.068   0.1390   0.3978   0.7613   0
1206.128   0.0554   0.3900   0.7589   0
1206.187   -0.0264   0.3818   0.7564   0
1206.247   -0.0266   0.3817   0.7539   0
1206.307   -0.0239   0.3816   0.7513   0
1206.367   -0.0235   0.3816   0.7487   0
1206.427   -0.0240   0.3815   0.7461   0
1206.486   0.0166   0.3855   0.7435   0
1206.546   0.0150   0.3854   0.7408   0
1206.606   0.0143   0.3853   0.7380   0
1206.666   0.0952   0.3932   0.7352   0
1206.726   0.0120   0.3851   0.7324   0
1206.786   0.0956   0.3929   0.7295   0
1206.845   0.0545   0.3888   0.7266   0
1206.905   -0.0261   0.3808   0.7237   0
1206.965   0.3845   0.4184   0.7207   0
1207.025   0.1784   0.4003   0.7176   0
1207.085   0.2202   0.4036   0.7145   0
1207.144   0.1404   0.3965   0.7114   0
1207.204   -0.0223   0.3805   0.7082   0
1207.264   0.1006   0.3923   0.7050   0
1207.324   0.0618   0.3891   0.7017   0
1207.384   0.0644   0.3904   0.6983   0
1207.444   -0.0217   0.3821   0.6949   0
1207.503   0.0227   0.3858   0.6915   0
1207.563   0.0651   0.3898   0.6880   0
1207.623   0.0231   0.3853   0.6844   0
1207.683   0.0244   0.3859   0.6808   0
1207.743   0.1927   0.4023   0.6771   0
1207.802   -0.0237   0.3803   0.6735   0
1207.862   0.0590   0.3881   0.6697   0
1207.922   0.2218   0.4031   0.6658   0
1207.982   -0.0202   0.3795   0.6619   0
1208.042   0.0215   0.3835   0.6579   0
1208.102   -0.0189   0.3794   0.6539   0
1208.161   0.0621   0.3875   0.6498   0
1208.221   0.0197   0.3833   0.6457   0
1208.281   -0.0210   0.3792   0.6414   0
1208.341   0.0591   0.3872   0.6371   0
1208.401   0.0980   0.3910   0.6327   0
1208.460   0.0155   0.3830   0.6284   0
1208.520   -0.0252   0.3789   0.6238   0
1208.580   -0.0260   0.3789   0.6192   0
1208.640   0.0131   0.3828   0.6146   0
1208.700   0.0536   0.3866   0.6098   0
1208.760   0.0129   0.3827   0.6050   0
1208.819   0.0549   0.3866   0.6002   0
1208.879   0.0928   0.3904   0.5952   0
1208.939   0.1723   0.3978   0.5901   0
1208.999   0.0503   0.3862   0.5850   0
1209.059   0.1723   0.3976   0.5798   0
1209.119   0.3755   0.4159   0.5745   0
1209.178   0.1291   0.3936   0.5691   0
1209.238   0.1691   0.3973   0.5637   0
1209.298   0.1284   0.3935   0.5581   0
1209.358   0.1301   0.3934   0.5524   0
1209.418   0.2949   0.4079   0.5467   0
1209.477   0.1743   0.3968   0.5409   0
1209.537   0.2144   0.4009   0.5350   0
1209.597   0.1733   0.3969   0.5289   0
1209.657   0.2550   0.4043   0.5228   0
1209.717   0.2162   0.4001   0.5165   0
1209.776   0.3398   0.4115   0.5103   0
1209.836   0.3224   0.3795   0.5039   0
1209.896   0.3831   0.4153   0.4973   0
1209.956   0.0983   0.3889   0.4907   0
1210.016   0.2598   0.4039   0.4840   0
1210.076   0.2999   0.4072   0.4771   0
1210.135   0.3806   0.4136   0.4703   0
1210.195   0.3424   0.4111   0.4632   0
1210.255   0.2227   0.4000   0.4560   0
1210.315   0.3440   0.4101   0.4488   0
1210.375   0.2608   0.4034   0.4414   0
1210.435   0.1777   0.3957   0.4339   0
1210.494   0.2633   0.4044   0.4264   0
1210.554   0.3971   0.4181   0.4187   0
1210.614   0.3157   0.4107   0.4109   0
1210.674   0.4939   0.4268   0.4030   0
1210.734   0.3263   0.4128   0.3949   0
1210.793   0.3266   0.4125   0.3869   0
1210.853   0.3295   0.4132   0.3787   0
1210.913   0.2806   0.4081   0.3704   0
1210.973   0.2767   0.4079   0.3619   0
1211.033   0.2725   0.4067   0.3534   0
1211.093   0.1767   0.3956   0.3447   0
1211.152   0.3328   0.4080   0.3361   0
1211.212   0.1302   0.3898   0.3273   0
1211.272   0.1707   0.3933   0.3183   1
1211.332   0.2527   0.4004   0.3093   1
1211.392   0.2939   0.4045   0.3002   1
1211.452   0.2531   0.4005   0.2911   1
1211.511   0.4135   0.4148   0.2820   1
1211.571   0.3313   0.4072   0.2727   1
1211.631   0.1305   0.3889   0.2633   1
1211.691   0.2921   0.4033   0.2539   1
1211.751   0.2931   0.4033   0.2444   1
1211.810   0.5338   0.4234   0.2351   1
1211.870   0.1309   0.3883   0.2256   1
1211.930   0.2508   0.3993   0.2161   1
1211.990   0.3286   0.4064   0.2065   1
1212.050   0.1297   0.3876   0.1970   1
1212.109   0.1297   0.3878   0.1877   1
1212.169   0.1286   0.3875   0.1782   1
1212.229   0.3685   0.4086   0.1688   1
1212.289   0.2459   0.3974   0.1595   1
1212.349   0.1638   0.3905   0.1502   1
1212.409   0.0433   0.3797   0.1411   1
1212.469   0.0839   0.3831   0.1321   1
1212.528   0.2453   0.3973   0.1233   1
1212.588   0.0882   0.3828   0.1146   1
1212.648   0.0893   0.3825   0.1061   1
1212.708   0.0889   0.3822   0.0977   1
1212.768   0.0884   0.3822   0.0897   1
1212.827   0.1699   0.3895   0.0819   1
1212.887   0.1704   0.3892   0.0744   1
1212.947   0.0936   0.3819   0.0671   1
1213.007   0.1357   0.3851   0.0602   1
1213.067   0.0160   0.3739   0.0536   1
1213.126   0.0962   0.3813   0.0474   1
1213.186   0.0568   0.3776   0.0416   1
1213.246   0.0950   0.3812   0.0361   1
1213.306   0.2139   0.3917   0.0310   1
1213.366   0.0945   0.3809   0.0264   1
1213.426   0.0121   0.3730   0.0222   1
1213.485   0.0085   0.3729   0.0185   1
1213.545   0.2050   0.3912   0.0151   1
1213.605   0.1652   0.3873   0.0122   1
1213.665   0.0073   0.3730   0.0096   0
1213.725   0.1328   0.3860   0.0075   0
1213.785   0.2529   0.3976   0.0057   0
1213.844   0.1276   0.3849   0.0043   0
1213.904   0.0861   0.3818   0.0031   0
1213.964   0.1711   0.3903   0.0022   0
1214.024   0.0854   0.3811   0.0015   0
1214.084   0.2451   0.3941   0.0010   0
1214.143   0.1180   0.3817   0.0006   0
1214.203   0.3097   0.3990   0.0004   0
1214.263   0.3880   0.4052   0.0003   0
1214.323   0.2670   0.3947   0.0002   0
1214.383   0.3439   0.4013   0.0001   0
1214.443   0.1858   0.3876   0.0001   0
1214.502   0.3323   0.4002   0.0000   0
1214.562   0.5849   0.4199   0.0000   0
1214.622   0.9012   0.4418   0.0000   0
1214.682   2.0350   0.5107   0.0000   0
1214.742   3.4180   0.5810   0.0000   0
1214.801   13.9316   0.9351   0.0000   0
1214.861   34.4963   1.3556   0.0000   0
1214.921   65.1090   1.7872   0.0000   0
1214.981   108.0910   2.2451   0.0000   0
1215.041   149.8920   2.6074   0.0000   0
1215.101   213.7828   3.0765   0.0000   0
1215.160   291.5492   3.5607   0.0000   0
1215.220   339.5839   3.8270   0.0000   0
1215.280   387.6198   4.0749   0.0000   0
1215.340   439.7959   4.3264   0.0000   0
1215.400   495.9874   4.5811   0.0000   0
1215.459   509.4530   4.6393   0.0000   0
1215.519   536.9118   4.7562   0.0000   0
1215.579   540.6165   4.7711   0.0000   0
1215.639   536.5531   4.7523   0.0000   0
1215.699   529.6667   4.7215   0.0000   0
1215.759   503.2374   4.6638   0.0000   0
1215.818   480.3932   4.6122   0.0000   0
1215.878   441.2319   4.4199   0.0000   0
1215.938   397.3533   4.2048   0.0000   0
1215.998   349.4010   3.9553   0.0000   0
1216.058   289.5385   3.6354   0.0000   0
1216.117   222.2575   3.1931   0.0000   0
1216.177   153.7276   2.6613   0.0000   0
1216.237   104.8123   2.1992   0.0000   0
1216.297   71.7425   1.8492   0.0000   0
1216.357   36.3640   1.3720   0.0000   0
1216.417   14.9506   0.9459   0.0000   0
1216.476   3.2449   0.5605   0.0000   0
1216.536   1.2673   0.4561   0.0000   0
1216.596   0.4648   0.4026   0.0000   0
1216.656   0.6267   0.4160   0.0000   0
1216.716   0.6571   0.4176   0.0000   0
1216.776   0.5219   0.4080   0.0000   0
1216.835   0.5345   0.4089   0.0000   0
1216.895   0.2769   0.3878   0.0000   0
1216.955   0.1704   0.3782   0.0000   0
1217.015   0.2482   0.3856   0.0000   0
1217.075   0.1753   0.3785   0.0000   0
1217.134   0.0650   0.3682   0.0000   0
1217.194   0.1426   0.3742   0.0000   0
1217.254   0.1071   0.3708   0.0000   0
1217.314   0.0690   0.3674   0.0000   0
1217.374   0.1851   0.3775   0.0000   0
1217.433   -0.0049   0.3600   0.0000   0
1217.493   0.2655   0.3835   0.0000   0
1217.553   0.0753   0.3666   0.0000   0
1217.613   0.2307   0.3804   0.0000   0
1217.673   0.0010   0.3592   0.0000   0
1217.733   0.0021   0.3589   0.0000   0
1217.792   0.1557   0.3729   0.0000   0
1217.852   0.0414   0.3620   0.0000   1
1217.912   0.1162   0.3689   0.0000   1
1217.972   0.0016   0.3580   0.0000   1
1218.032   0.0023   0.3577   0.0000   1
1218.092   0.1534   0.3715   0.0000   1
1218.151   0.0779   0.3647   0.0000   1
1218.211   -0.0325   0.3535   0.0000   1
1218.271   0.0057   0.3567   0.0000   1
1218.331   0.0058   0.3565   0.0000   1
1218.391   0.0826   0.3639   0.0000   1
1218.450   0.0078   0.3562   0.0000   1
1218.510   0.0075   0.3560   0.0000   1
1218.570   0.0449   0.3594   0.0000   1
1218.630   0.1979   0.3731   0.0000   1
1218.690   0.0487   0.3590   0.0000   1
1218.750   -0.0259   0.3515   0.0000   1
1218.809   0.0124   0.3549   0.0000   1
1218.869   0.0517   0.3581   0.0000   1
1218.929   0.0946   0.3626   0.0000   1
1218.989   0.0596   0.3600   0.0001   1
1219.049   0.1007   0.3637   0.0001   1
1219.109   0.0214   0.3560   0.0002   1
1219.168   0.0643   0.3610   0.0003   1
1219.228   -0.0203   0.3524   0.0005   1
1219.288   0.0209   0.3558   0.0008   1
1219.348   0.0226   0.3548   0.0013   1
1219.408   0.0976   0.3625   0.0019   1
1219.467   0.1343   0.3652   0.0027   1
1219.527   0.0537   0.3562   0.0037   1
1219.587   0.1256   0.3628   0.0050   1
1219.647   0.0511   0.3551   0.0067   1
1219.707   0.1240   0.3622   0.0086   1
1219.766   0.0863   0.3585   0.0110   1
1219.826   0.0127   0.3511   0.0137   1
1219.886   0.0124   0.3508   0.0168   1
1219.946   0.0499   0.3542   0.0204   1
1220.006   0.0125   0.3504   0.0244   1
1220.066   0.0142   0.3501   0.0288   1
1220.125   0.0501   0.3533   0.0335   1
1220.185   0.0490   0.3531   0.0387   1
1220.245   0.0881   0.3565   0.0443   1
1220.305   0.0487   0.3527   0.0503   1
1220.365   0.0857   0.3561   0.0567   1
1220.425   0.0882   0.3560   0.0634   1
1220.484   0.1637   0.3625   0.0703   1
1220.544   0.2395   0.3691   0.0776   1
1220.604   0.0532   0.3517   0.0852   1
1220.664   0.2396   0.3686   0.0931   1
1220.724   0.3516   0.3788   0.1012   1
1220.783   0.2027   0.3645   0.1094   1
1220.843   0.1654   0.3612   0.1179   1
1220.903   0.2398   0.3675   0.1266   1
1220.963   0.2402   0.3676   0.1354   1
1221.023   0.2391   0.3675   0.1444   1
1221.083   0.1653   0.3601   0.1534   1
1221.142   0.2749   0.3702   0.1625   1
1221.202   0.4961   0.3889   0.1717   1
1221.262   0.0891   0.3526   0.1810   1
1221.322   0.2020   0.3626   0.1904   1
1221.382   0.2762   0.3689   0.1997   1
1221.441   0.2382   0.3657   0.2090   1
1221.501   0.2014   0.3619   0.2184   1
1221.561   0.3126   0.3717   0.2278   1
1221.621   0.2024   0.3613   0.2371   1
1221.681   0.1264   0.3544   0.2465   1
1221.741   0.3460   0.3740   0.2558   1
1221.800   0.3093   0.3699   0.2649   1
1221.860   0.4550   0.3826   0.2741   1
1221.920   0.2721   0.3669   0.2833   1
1221.980   0.4195   0.3514   0.2924   1
1222.040   0.3918   0.3776   0.3014   1
1222.099   0.3255   0.3731   0.3102   1
1222.159   0.2923   0.3703   0.3190   1
1222.219   0.4057   0.3803   0.3278   1
1222.279   0.3624   0.3756   0.3365   1
1222.339   0.4422   0.3830   0.3451   1
1222.399   0.3285   0.3726   0.3536   1
1222.458   0.5131   0.3884   0.3618   1
1222.518   0.3888   0.3751   0.3701   1
1222.578   0.4576   0.3806   0.3783   1
1222.638   0.5304   0.3861   0.3864   1
1222.698   0.2770   0.3636   0.3944   1
1222.757   0.5309   0.3858   0.4022   1
1222.817   0.2755   0.3635   0.4100   1
1222.877   0.3460   0.3697   0.4177   1
1222.937   0.4543   0.3793   0.4252   1
1222.997   0.5627   0.3877   0.4327   1
1223.057   0.2357   0.3587   0.4401   1
1223.116   0.4527   0.3775   0.4472   1
1223.176   0.5630   0.3857   0.4544   1
1223.236   0.4553   0.3775   0.4614   1
1223.296   0.3470   0.3676   0.4683   1
1223.356   0.5988   0.3887   0.4752   1
1223.416   0.5643   0.3863   0.4819   1
1223.475   0.8880   0.4099   0.4884   1
1223.535   0.3824   0.3703   0.4950   1
1223.595   0.7055   0.3960   0.5014   1
1223.655   0.3105   0.3633   0.5078   1
1223.715   0.5974   0.3880   0.5140   1
1223.774   0.5240   0.3808   0.5200   1
1223.834   0.5576   0.3839   0.5261   1
1223.894   0.3782   0.3681   0.5320   1
1223.954   0.5921   0.3858   0.5379   1
1224.014   0.4516   0.3745   0.5436   1
1224.073   0.4156   0.3710   0.5492   1
1224.133   0.4582   0.3758   0.5548   1
1224.193   0.5045   0.3804   0.5603   1
1224.253   0.5510   0.3855   0.5657   1
1224.313   0.6631   0.3943   0.5710   1
1224.373   0.6943   0.3960   0.5763   1
1224.432   0.6948   0.3949   0.5814   1
1224.492   0.6937   0.3941   0.5864   1
1224.552   0.3885   0.3684   0.5914   1
1224.612   0.4871   0.3758   0.5963   1
1224.672   0.4777   0.3738   0.6012   1
1224.732   0.6576   0.3885   0.6059   1
1224.791   0.5881   0.3824   0.6106   1
1224.851   0.6605   0.3877   0.6152   1
1224.911   1.1564   0.4250   0.6197   1
1224.971   0.6254   0.3846   0.6242   1
1225.031   0.7655   0.3953   0.6286   1
1225.090   0.6948   0.3896   0.6328   1
1225.150   0.5528   0.3781   0.6371   1
1225.210   0.8346   0.4001   0.6413   1
1225.270   0.7971   0.3956   0.6454   1
1225.330   0.6918   0.3894   0.6495   1
1225.390   0.8324   0.4000   0.6535   1
1225.449   0.4417   0.3677   0.6573   1
1225.509   0.5120   0.3743   0.6612   1
1225.569   0.7945   0.3945   0.6650   1
1225.629   0.8637   0.3997   0.6688   1
1225.689   0.6870   0.3861   0.6725   1
1225.749   0.4378   0.3658   0.6761   1
1225.808   0.6489   0.3831   0.6797   1
1225.868   0.6480   0.3831   0.6832   1
1225.928   0.5747   0.3765   0.6867   1
1225.988   0.7155   0.3883   0.6901   1
1226.048   0.7511   0.3887   0.6935   1
1226.107   0.5418   0.3736   0.6968   1
1226.167   0.8552   0.3986   0.7000   1
1226.227   0.9259   0.4036   0.7033   1
1226.287   0.6813   0.3842   0.7064   1
1226.347   0.7156   0.3862   0.7096   1
1226.406   0.8573   0.3971   0.7126   1
1226.466   0.7906   0.3920   0.7156   1
1226.526   0.6858   0.3834   0.7186   1
1226.586   0.8959   0.4001   0.7216   1
1226.646   0.8974   0.4009   0.7245   1
1226.706   0.7940   0.3915   0.7273   1
1226.765   0.5174   0.3695   0.7301   1
1226.825   0.6558   0.3816   0.7329   1
1226.885   1.1073   0.4149   0.7356   1
1226.945   0.9329   0.4009   0.7383   1
1227.005   0.9316   0.4007   0.7410   1
1227.065   0.8251   0.3923   0.7436   1
1227.124   0.8234   0.3932   0.7461   1
1227.184   0.6490   0.3786   0.7487   1
1227.244   0.4755   0.3640   0.7512   0
1227.304   0.9029   0.3982   0.7537   0
1227.364   0.8226   0.3939   0.7561   0
1227.423   0.5546   0.3751   0.7585   0
1227.483   0.6729   0.3837   0.7608   0
1227.543   0.6779   0.3869   0.7632   0
1227.603   0.4858   0.3676   0.7655   0
1227.663   0.5628   0.3753   0.7678   0
1227.723   0.6252   0.3804   0.7700   0
1227.782   0.3514   0.3537   0.7722   0
1227.842   0.7089   0.3836   0.7744   0
1227.902   0.6881   0.3800   0.7765   0
1227.962   0.7065   0.3809   0.7786   0
1228.022   0.3626   0.3517   0.7807   0
1228.081   0.5668   0.3689   0.7827   0
1228.141   0.7720   0.3839   0.7848   0
1228.201   0.7365   0.3823   0.7868   0
1228.261   0.7366   0.3812   0.7888   0
1228.321   0.5637   0.3684   0.7907   0
1228.381   0.9707   0.3964   0.7927   0
1228.440   0.8655   0.3904   0.7945   0
1228.500   0.4883   0.3612   0.7964   0
1228.560   0.9334   0.3957   0.7983   0
1228.620   0.4883   0.3602   0.8001   0
1228.680   0.4204   0.3547   0.8019   0
1228.740   0.5552   0.3652   0.8037   0
1228.799   0.5215   0.3620   0.8054   0
1228.859   0.5908   0.3667   0.8071   0
1228.919   0.5930   0.3680   0.8089   0
1228.979   0.5928   0.3669   0.8106   0
1229.039   0.6597   0.3725   0.8122   0
1229.098   0.5923   0.3674   0.8138   0
1229.158   0.6270   0.3693   0.8155   0
1229.218   0.6260   0.3698   0.8171   0
1229.278   0.9987   0.3974   0.8187   0
1229.338   0.7927   0.3820   0.8202   0
1229.397   0.9971   0.3969   0.8218   0
1229.457   0.6578   0.3698   0.8233   0
1229.517   0.4881   0.3574   0.8248   0
1229.577   0.6561   0.3704   0.8263   0
1229.637   0.4523   0.3541   0.8278   0
1229.697   0.7531   0.3775   0.8292   0
1229.756   0.6511   0.3690   0.8306   0
1229.816   0.4842   0.3569   0.8320   0
1229.876   0.7874   0.3799   0.8334   0
1229.936   0.8887   0.3860   0.8348   0
1229.996   0.6159   0.3662   0.8362   0
1230.056   1.0190   0.3946   0.8375   0
1230.115   0.8514   0.3821   0.8389   0
1230.175   0.9173   0.3885   0.8402   0
1230.235   0.9165   0.3877   0.8415   0
1230.295   0.7475   0.3755   0.8428   0
1230.355   0.7477   0.3736   0.8440   0
1230.414   0.5988   0.3658   0.8453   0
1230.474   0.4695   0.3548   0.8465   0
1230.534   0.6191   0.3671   0.8477   0
1230.594   0.5834   0.3642   0.8490   0
1230.654   0.4052   0.3495   0.8501   0
1230.714   0.5800   0.3634   0.8513   0
1230.773   0.5145   0.3573   0.8525   0
1230.833   0.4728   0.3549   0.8536   0
1230.893   0.3906   0.3452   0.8548   0
1230.953   0.4819   0.3515   0.8559   0
1231.013   0.6500   0.3658   0.8570   0
1231.073   0.7504   0.3732   0.8581   0
1231.132   0.6183   0.3621   0.8592   0
1231.192   0.5180   0.3544   0.8603   0
1231.252   0.3502   0.3396   0.8614   0
1231.312   0.5186   0.3531   0.8624   0
1231.372   0.4855   0.3507   0.8635   0
1231.431   0.7505   0.3718   0.8645   0
1231.491   0.5508   0.3561   0.8655   0
1231.551   0.6156   0.3602   0.8665   0
1231.611   0.4496   0.3475   0.8675   0
1231.671   0.3160   0.3357   0.8685   0
1231.730   0.4845   0.3493   0.8695   0
1231.790   0.6513   0.3630   0.8704   0
1231.850   0.4180   0.3444   0.8714   0
1231.910   0.4510   0.3456   0.8723   0
1231.970   0.4841   0.3493   0.8733   0
1232.030   0.3841   0.3409   0.8742   0
1232.089   0.2505   0.3285   0.8751   0
1232.149   0.5809   0.3564   0.8760   0
1232.209   0.5159   0.3508   0.8769   0
1232.269   0.4163   0.3420   0.8778   0
1232.329   0.3169   0.3336   0.8787   0
1232.389   0.5458   0.3525   0.8795   0
1232.448   0.5143   0.3504   0.8804   0
1232.508   0.6598   0.3625   0.8812   0
1232.568   0.3598   0.3383   0.8821   0
1232.628   0.6444   0.3642   0.8829   0
1232.688   0.5424   0.3556   0.8837   0
1232.747   0.7080   0.3682   0.8845   0
1232.807   0.1895   0.3222   0.8853   0
1232.867   0.6724   0.3642   0.8861   0
1232.927   0.6024   0.3586   0.8869   0
1232.987   0.8565   0.3767   0.8877   0
1233.047   0.7708   0.3686   0.8885   0
1233.106   0.5092   0.3475   0.8892   0
1233.166   0.6728   0.3608   0.8900   0
1233.226   0.5756   0.3522   0.8907   0
1233.286   0.5751   0.3529   0.8915   0
1233.346   0.6415   0.3582   0.8922   0
1233.405   0.8708   0.3749   0.8929   0
1233.465   0.8397   0.3729   0.8936   0
1233.525   0.7106   0.3626   0.8944   0
1233.585   1.0695   0.3889   0.8951   0
1233.645   0.7410   0.3640   0.8958   0
1233.705   0.8709   0.3733   0.8965   0
1233.764   0.6410   0.3566   0.8971   0
1233.824   0.6719   0.3582   0.8978   0
1233.884   0.7003   0.3599   0.8985   0
1233.944   0.6340   0.3549   0.8991   0
1234.004   0.6672   0.3584   0.8998   0
1234.063   0.6340   0.3545   0.9005   0
1234.123   0.5410   0.3216   0.9011   0
1234.183   1.1547   0.3938   0.9017   0
1234.243   0.8298   0.3688   0.9024   0
1234.303   0.6666   0.3569   0.9030   0
1234.363   0.7963   0.3657   0.9036   0
1234.422   0.7636   0.3637   0.9042   0
1234.482   0.5032   0.3428   0.9048   0
1234.542   0.4700   0.3407   0.9054   0
1234.602   0.5348   0.3455   0.9060   0
1234.662   0.6961   0.3587   0.9066   0
1234.721   0.7625   0.3621   0.9072   0
1234.781   0.4718   0.3395   0.9078   0
1234.841   0.9612   0.3769   0.9084   0
1234.901   0.5736   0.3485   0.9089   0
1234.961   0.4436   0.3370   0.9095   0
1235.021   0.4092   0.3334   0.9101   0
1235.080   0.6672   0.3538   0.9106   0
1235.140   0.6015   0.3495   0.9112   0
1235.200   0.6003   0.3490   0.9117   0
1235.260   0.7622   0.3623   0.9123   0
1235.320   0.6334   0.3519   0.9128   0
1235.380   0.3767   0.3293   0.9133   0
1235.439   0.6328   0.3496   0.9138   0
1235.499   0.6336   0.3507   0.9144   0
1235.559   0.6353   0.3516   0.9149   0
1235.619   0.6705   0.3534   0.9154   0
1235.679   0.7863   0.3646   0.9159   0
1235.738   0.5941   0.3488   0.9164   0
1235.798   0.6028   0.3514   0.9169   0
1235.858   0.9185   0.3764   0.9174   0
1235.918   0.8089   0.3707   0.9179   0
1235.978   0.6398   0.3580   0.9184   0
1236.037   0.7768   0.3676   0.9188   0
1236.097   0.6559   0.3573   0.9193   0
1236.157   0.5678   0.3472   0.9198   0
1236.217   0.7515   0.3599   0.9202   0
1236.277   0.4469   0.3351   0.9207   0
1236.337   0.4959   0.3364   0.9212   0
1236.396   0.5918   0.3453   0.9216   0
1236.456   0.8160   0.3619   0.9221   0
1236.516   0.7848   0.3595   0.9225   0
1236.576   0.8480   0.3648   0.9230   0
1236.636   0.7188   0.3550   0.9234   0
1236.696   0.3997   0.3286   0.9238   0
1236.755   0.7181   0.3543   0.9243   0
1236.815   0.6538   0.3494   0.9247   0
1236.875   0.7815   0.3589   0.9251   0
1236.935   0.7807   0.3586   0.9256   0
1236.995   0.6853   0.3509   0.9260   0
1237.054   0.6202   0.3458   0.9264   0
1237.114   0.9382   0.3695   0.9268   0
1237.174   0.6494   0.3474   0.9272   0
1237.234   0.4892   0.3349   0.9276   0
1237.294   0.5230   0.3374   0.9280   0
1237.354   0.5555   0.3402   0.9284   0
1237.413   0.5243   0.3380   0.9288   0
1237.473   0.7463   0.3546   0.9292   0
1237.533   0.4920   0.3339   0.9296   0
1237.593   0.3980   0.3264   0.9300   0
1237.653   0.4947   0.3345   0.9303   0
1237.713   0.3997   0.3265   0.9307   0
1237.772   0.7481   0.3550   0.9311   0
1237.832   0.5902   0.3417   0.9315   0
1237.892   0.5584   0.3394   0.9318   0
1237.952   0.3360   0.3202   0.9322   0
1238.012   0.5899   0.3399   0.9326   0
1238.071   0.6862   0.3476   0.9329   0
1238.131   0.3056   0.3173   0.9333   0
1238.191   0.5924   0.3413   0.9336   0
1238.251   0.4324   0.3270   0.9340   0
1238.311   0.5908   0.3415   0.9343   0
1238.370   0.6854   0.3474   0.9347   0
1238.430   0.5590   0.3383   0.9350   0
1238.490   0.6232   0.3435   0.9354   0
1238.550   0.6224   0.3426   0.9357   0
1238.610   0.6523   0.3451   0.9360   0
1238.670   0.3993   0.3237   0.9364   0
1238.729   0.4314   0.3273   0.9367   0
1238.789   0.4322   0.3260   0.9370   0
1238.849   0.4010   0.3243   0.9374   0
1238.909   0.5832   0.3423   0.9377   0
1238.969   0.5577   0.3407   0.9380   0
1239.029   0.4560   0.3304   0.9383   0
1239.088   0.5793   0.3413   0.9386   0
1239.148   0.4167   0.3273   0.9389   0
1239.208   0.5426   0.3374   0.9393   0
1239.268   0.7578   0.3535   0.9396   0
1239.328   0.6479   0.3439   0.9399   0
1239.387   0.5529   0.3360   0.9402   0
1239.447   0.4907   0.3304   0.9405   0
1239.507   0.5218   0.3331   0.9408   0
1239.567   0.3021   0.3139   0.9411   0
1239.627   0.5196   0.3333   0.9414   0
1239.687   0.2977   0.3134   0.9417   0
1239.746   0.5485   0.3345   0.9419   0
1239.806   0.5485   0.3340   0.9422   0
1239.866   0.3925   0.3223   0.9425   0
1239.926   0.6139   0.3382   0.9428   0
1239.986   0.5199   0.3310   0.9431   0
1240.045   0.5507   0.3345   0.9434   0
1240.105   0.6149   0.3398   0.9436   0
1240.165   0.6148   0.3396   0.9439   0
1240.225   0.5212   0.3313   0.9442   0
1240.285   0.4587   0.3264   0.9445   0
1240.345   0.3960   0.3210   0.9447   0
1240.404   0.4598   0.3262   0.9450   0
1240.464   0.4606   0.3257   0.9453   0
1240.524   0.7092   0.3451   0.9455   0
1240.584   0.4274   0.3228   0.9458   0
1240.644   0.2705   0.3092   0.9460   0
1240.703   0.2405   0.3061   0.9463   0
1240.763   0.6153   0.3389   0.9465   0
1240.823   0.3961   0.3193   0.9468   0
1240.883   0.4904   0.3273   0.9471   0
1240.943   0.3645   0.3164   0.9473   0
1241.003   0.3835   0.3205   0.9476   0
1241.062   0.4206   0.3252   0.9478   0
1241.122   0.3177   0.3156   0.9480   0
1241.182   0.7353   0.3506   0.9483   0
1241.242   0.8036   0.3566   0.9485   0
1241.302   0.7601   0.3508   0.9488   0
1241.361   0.8453   0.3553   0.9490   0
1241.421   0.8884   0.3584   0.9492   0
1241.481   0.7929   0.3516   0.9495   0
1241.541   0.7934   0.3509   0.9497   0
1241.601   0.6698   0.3420   0.9499   0
1241.661   0.6704   0.3410   0.9502   0
1241.720   0.8552   0.3556   0.9504   0
1241.780   1.1678   0.3775   0.9506   0
1241.840   1.1031   0.3722   0.9509   0
1241.900   1.2571   0.3820   0.9511   0
1241.960   0.6969   0.3439   0.9513   0
1242.020   0.7299   0.3455   0.9515   0
1242.079   1.1668   0.3777   0.9517   0
1242.139   0.6999   0.3422   0.9520   1
1242.199   0.8247   0.3515   0.9522   1
1242.259   1.1371   0.3750   0.9524   1
1242.319   0.8576   0.3556   0.9526   1
1242.378   0.6719   0.3406   0.9528   1
1242.438   1.2617   0.3831   0.9530   1
1242.498   0.5452   0.3300   0.9532   1
1242.558   0.7000   0.3427   0.9534   1
1242.618   0.7329   0.3459   0.9536   1
1242.677   0.7627   0.3485   0.9539   1
1242.737   0.6368   0.3380   0.9541   1
1242.797   0.8542   0.3527   0.9543   1
1242.857   0.6988   0.3419   0.9545   1
1242.917   1.1633   0.3768   0.9547   1
1242.977   0.5116   0.3271   0.9549   1
1243.036   0.6652   0.3398   0.9551   1
1243.096   0.6343   0.3375   0.9552   1
1243.156   0.6330   0.3367   0.9554   1
1243.216   1.1894   0.3762   0.9556   1
1243.276   0.9440   0.3595   0.9558   1
1243.336   0.6352   0.3370   0.9560   1
1243.395   0.7273   0.3442   0.9562   1
1243.455   0.4786   0.3243   0.9564   1
1243.515   0.6657   0.3384   0.9566   1
1243.575   0.8837   0.3553   0.9568   1
1243.635   1.0064   0.3645   0.9570   1
1243.694   1.0668   0.3673   0.9571   1
1243.754   1.0031   0.3643   0.9573   1
1243.814   1.0036   0.3644   0.9575   1
1243.874   0.8496   0.3528   0.9577   1
1243.934   0.9419   0.3586   0.9579   1
1243.994   1.4393   0.3944   0.9580   1
1244.053   0.8208   0.3504   0.9582   1
1244.113   1.0077   0.3630   0.9584   1
1244.173   0.9283   0.3626   0.9586   1
1244.233   0.8202   0.3564   0.9587   1
1244.293   0.9841   0.3707   0.9589   1
1244.353   0.9460   0.3685   0.9591   1
1244.412   0.5669   0.3359   0.9592   1
1244.472   0.9981   0.3690   0.9594   1
1244.532   0.8633   0.3595   0.9596   1
1244.592   0.8751   0.3589   0.9597   1
1244.652   0.4052   0.3183   0.9599   1
1244.711   0.5505   0.3293   0.9601   1
1244.771   0.4871   0.3239   0.9602   1
1244.831   1.0749   0.3688   0.9604   1
1244.891   0.7652   0.3448   0.9606   1
1244.951   0.4851   0.3240   0.9607   1
1245.010   0.9814   0.3614   0.9609   1
1245.070   0.6717   0.3396   0.9610   1
1245.130   0.6402   0.3355   0.9612   1
1245.190   0.9795   0.3607   0.9614   1
1245.250   0.7637   0.3464   0.9615   1
1245.310   1.0090   0.3633   0.9617   1
1245.370   0.9774   0.3616   0.9618   1
1245.429   0.9471   0.3584   0.9620   1
1245.489   0.7005   0.3402   0.9621   1
1245.549   1.1635   0.3742   0.9623   1
1245.609   1.0680   0.3676   0.9624   1
1245.669   0.8220   0.3498   0.9626   1
1245.728   1.1616   0.3729   0.9627   1
1245.788   1.1934   0.3746   0.9629   1
1245.848   1.2561   0.3803   0.9630   1
1245.908   1.2874   0.3823   0.9632   1
1245.968   1.1946   0.3763   0.9633   1
1246.027   0.9761   0.3614   0.9634   1
1246.087   1.0996   0.3693   0.9636   1
1246.147   1.2236   0.3784   0.9637   1
1246.207   0.9775   0.3607   0.9639   1
1246.267   0.9935   0.3361   0.9640   1
1246.327   0.8843   0.3547   0.9642   1
1246.386   1.1622   0.3723   0.9643   1
1246.446   1.4410   0.3921   0.9644   1
1246.506   0.9779   0.3614   0.9646   1
1246.566   0.9497   0.3595   0.9647   1
1246.626   0.9200   0.3577   0.9648   1
1246.686   0.9185   0.3576   0.9650   1
1246.745   0.9802   0.3604   0.9651   1
1246.805   1.0419   0.3664   0.9652   1
1246.865   1.0716   0.3668   0.9654   1
1246.925   0.9490   0.3583   0.9655   1
1246.985   0.7033   0.3395   0.9656   1
1247.044   0.9798   0.3619   0.9658   1
1247.104   0.9476   0.3583   0.9659   1
1247.164   0.8557   0.3526   0.9660   1
1247.224   0.9362   0.3601   0.9662   1
1247.284   1.2863   0.3876   0.9663   1
1247.344   0.8399   0.3558   0.9664   1
1247.403   1.0945   0.3746   0.9665   1
1247.463   0.7633   0.3488   0.9667   1
1247.523   1.3933   0.3944   0.9668   1
1247.583   1.1302   0.3768   0.9669   0
1247.643   1.2644   0.3824   0.9670   0
1247.702   1.3462   0.3862   0.9672   0
1247.762   0.6653   0.3379   0.9673   0
1247.822   0.9729   0.3607   0.9674   0
1247.882   0.7901   0.3480   0.9675   0
1247.942   0.8826   0.3538   0.9676   0
1248.002   0.7259   0.3416   0.9678   0
1248.061   0.7883   0.3473   0.9679   0
1248.121   1.0354   0.3635   0.9680   0
1248.181   0.8188   0.3497   0.9681   0
1248.241   0.7268   0.3421   0.9682   0
1248.301   0.6356   0.3352   0.9683   0
1248.360   0.7608   0.3454   0.9685   0
1248.420   0.8211   0.3477   0.9686   0
1248.480   0.7603   0.3450   0.9687   0
1248.540   0.7300   0.3420   0.9688   0
1248.600   0.8221   0.3486   0.9689   0
1248.660   0.7919   0.3461   0.9690   0
1248.719   0.9471   0.3586   0.9691   0
1248.779   0.6053   0.3333   0.9692   0
1248.839   0.5407   0.3268   0.9694   0
1248.899   0.6650   0.3367   0.9695   0
1248.959   0.7274   0.3421   0.9696   0
1249.018   0.6331   0.3350   0.9697   0
1249.078   0.4158   0.3172   0.9698   0
1249.138   0.3845   0.3136   0.9699   0
1249.198   0.5382   0.3274   0.9700   0
1249.258   0.3521   0.3106   0.9701   0
1249.318   0.5871   0.3315   0.9702   0
1249.377   0.2406   0.3034   0.9703   0
1249.437   0.3757   0.3166   0.9704   0
1249.497   0.6970   0.3436   0.9705   0
1249.557   0.3704   0.3150   0.9706   0
1249.617   0.4384   0.3223   0.9707   0
1249.677   0.4378   0.3221   0.9708   0
1249.736   0.4231   0.3191   0.9709   0
1249.796   0.5340   0.3269   0.9710   0
1249.856   0.5977   0.3308   0.9711   0
1249.916   0.5651   0.3288   0.9712   0
1249.976   0.7802   0.3460   0.9713   0
1250.035   0.5975   0.3312   0.9714   0
1250.095   0.5061   0.3242   0.9715   0
1250.155   0.6938   0.3381   0.9716   0
1250.215   0.6032   0.3330   0.9717   0
1250.275   1.0358   0.3638   0.9718   0
1250.334   0.9429   0.3585   0.9719   0
1250.394   0.6652   0.3366   0.9720   0
1250.454   0.8815   0.3517   0.9721   0
1250.514   0.2644   0.3031   0.9722   0
1250.574   0.6357   0.3349   0.9723   0
1250.634   0.6056   0.3320   0.9724   0
1250.693   0.5768   0.3312   0.9725   0
1250.753   0.6097   0.3324   0.9726   0
1250.813   0.9215   0.3567   0.9727   0
1250.873   1.2001   0.3756   0.9728   0
1250.933   0.9830   0.3606   0.9729   0
1250.993   1.0141   0.3635   0.9729   0
1251.052   1.1668   0.3726   0.9730   0
1251.112   0.9485   0.3575   0.9731   0
1251.172   0.7304   0.3428   0.9732   0
1251.232   1.0401   0.3654   0.9733   0
1251.292   0.8244   0.3492   0.9734   0
1251.351   1.1648   0.3726   0.9735   0
1251.411   0.8861   0.3544   0.9736   0
1251.471   0.9174   0.3556   0.9737   0
1251.531   1.0115   0.3635   0.9737   0
1251.591   1.1344   0.3711   0.9738   0
1251.651   0.7619   0.3442   0.9739   0
1251.710   0.8529   0.3508   0.9740   0
1251.770   1.0084   0.3629   0.9741   0
1251.830   1.0387   0.3654   0.9742   0
1251.890   0.8856   0.3538   0.9743   0
1251.950   0.6382   0.3356   0.9743   0
1252.010   0.8857   0.3518   0.9744   0
1252.069   0.5769   0.3312   0.9745   0
1252.129   0.5771   0.3297   0.9746   0
1252.189   0.6411   0.3348   0.9747   0
1252.249   0.6722   0.3377   0.9748   0
1252.309   0.7016   0.3389   0.9748   0
1252.368   0.7956   0.3470   0.9749   0
1252.428   0.4553   0.3207   0.9750   0
1252.488   0.6186   0.3338   0.9751   0
1252.548   0.7341   0.3448   0.9752   0
1252.608   0.4488   0.3227   0.9752   0
1252.667   0.6393   0.3420   0.9753   0
1252.727   0.6012   0.3364   0.9754   0
1252.787   0.1275   0.2932   0.9755   0
1252.847   0.4035   0.3207   0.9756   0
1252.907   0.2572   0.3051   0.9756   0
1252.967   0.8712   0.3573   0.9757   0
1253.026   0.7363   0.3464   0.9758   0
1253.086   0.5874   0.3312   0.9759   0
1253.146   0.9201   0.3566   0.9759   0
1253.206   0.7343   0.3426   0.9760   0
1253.266   0.6413   0.3360   0.9761   0
1253.326   0.6724   0.3376   0.9762   0
1253.385   0.7646   0.3439   0.9762   0
1253.445   0.9497   0.3577   0.9763   0
1253.505   0.7657   0.3445   0.9764   0
1253.565   0.8278   0.3496   0.9765   0
1253.625   0.6415   0.3356   0.9765   0
1253.684   0.7025   0.3398   0.9766   0
1253.744   0.5475   0.3275   0.9767   0
1253.804   0.4552   0.3201   0.9767   0
1253.864   0.7990   0.3472   0.9768   0
1253.924   0.5817   0.3294   0.9769   0
1253.984   1.0159   0.3622   0.9770   0
1254.043   0.8286   0.3493   0.9770   0
1254.103   1.2037   0.3763   0.9771   0
1254.163   0.9529   0.3581   0.9772   0
1254.223   0.7045   0.3387   0.9772   0
1254.283   0.9210   0.3567   0.9773   0
1254.342   0.5472   0.3276   0.9774   0
1254.402   0.5792   0.3304   0.9775   0
1254.462   0.6734   0.3378   0.9775   0
1254.522   0.8899   0.3544   0.9776   0
1254.582   0.9220   0.3565   0.9777   0
1254.642   0.7039   0.3405   0.9777   0
1254.701   0.8912   0.3549   0.9778   0
1254.761   0.7655   0.3451   0.9779   0
1254.821   0.7961   0.3476   0.9779   0
1254.881   0.9835   0.3616   0.9780   0
1254.941   0.7012   0.3396   0.9781   0
1255.000   0.7020   0.3405   0.9781   0
1255.060   0.7336   0.3422   0.9782   0
1255.120   0.9226   0.3563   0.9783   0
1255.180   1.0785   0.3656   0.9783   0
1255.240   0.7038   0.3404   0.9784   0
1255.300   1.1405   0.3714   0.9785   0
1255.359   1.0171   0.3633   0.9785   0
1255.419   0.5791   0.3310   0.9786   0
1255.479   0.7342   0.3424   0.9786   0
1255.539   0.7977   0.3483   0.9787   0
1255.599   0.6466   0.3373   0.9788   0
1255.658   0.6993   0.3437   0.9788   0
1255.718   0.9035   0.3587   0.9789   0
1255.778   0.6412   0.3392   0.9790   0
1255.838   0.7069   0.3436   0.9790   0
1255.898   0.4765   0.3245   0.9791   0
1255.958   0.2820   0.3065   0.9791   0
1256.017   0.2827   0.3069   0.9792   0
1256.077   0.2722   0.3046   0.9793   0
1256.137   0.4255   0.3176   0.9793   0
1256.197   0.3950   0.3149   0.9794   0
1256.257   0.8354   0.3511   0.9794   0
1256.317   0.7727   0.3455   0.9795   0
1256.376   0.9607   0.3598   0.9796   0
1256.436   0.6478   0.3352   0.9796   0
1256.496   0.9656   0.3612   0.9797   0
1256.556   0.9648   0.3600   0.9797   0
1256.616   1.2161   0.3781   0.9798   0
1256.675   0.8710   0.3531   0.9799   0
1256.735   0.9039   0.3562   0.9799   0
1256.795   0.8724   0.3545   0.9800   0
1256.855   1.0599   0.3682   0.9800   0
1256.915   0.9656   0.3610   0.9801   0
1256.974   0.8083   0.3495   0.9801   0
1257.034   0.8085   0.3475   0.9802   0
1257.094   0.8397   0.3504   0.9803   0
1257.154   0.8363   0.3493   0.9803   0
1257.214   1.3371   0.3858   0.9804   0
1257.274   1.0561   0.3655   0.9804   0
1257.333   0.9600   0.3600   0.9805   0
1257.393   0.7401   0.3429   0.9805   0
1257.453   1.0539   0.3650   0.9806   0
1257.513   0.9930   0.3622   0.9806   0
1257.573   1.2157   0.3786   0.9807   0
1257.633   1.0896   0.3691   0.9807   0
1257.692   0.8059   0.3478   0.9808   0
1257.752   0.7084   0.3440   0.9809   0
1257.812   0.8162   0.3533   0.9809   0
1257.872   0.8814   0.3579   0.9810   0
1257.932   1.0116   0.3666   0.9810   0
1257.991   1.3013   0.3886   0.9811   0
1258.051   0.8855   0.3585   0.9811   0
1258.111   0.9449   0.3618   0.9812   0
1258.171   1.1733   0.3763   0.9812   0
1258.231   0.8095   0.3484   0.9813   0
1258.291   0.6193   0.3343   0.9813   0
1258.350   0.9358   0.3579   0.9814   0
1258.410   1.0175   0.3364   0.9814   0
1258.470   0.9683   0.3618   0.9815   0
1258.530   0.8413   0.3519   0.9815   0
1258.590   1.1251   0.3722   0.9816   0
1258.650   0.9979   0.3628   0.9816   0
1258.709   0.8079   0.3474   0.9817   0
1258.769   0.8705   0.3531   0.9817   0
1258.829   0.6487   0.3349   0.9818   0
1258.889   1.2815   0.3812   0.9818   0
1258.949   1.0306   0.3643   0.9819   0
1259.008   1.1572   0.3734   0.9819   0
1259.068   0.8418   0.3523   0.9820   0
1259.128   0.8740   0.3539   0.9820   0
1259.188   1.0632   0.3659   0.9821   0
1259.248   0.9077   0.3552   0.9821   0
1259.307   0.9076   0.3565   0.9822   0
1259.367   0.3364   0.3099   0.9822   0
1259.427   0.2105   0.2978   0.9823   0
1259.487   0.1487   0.2919   0.9823   0
1259.547   0.4012   0.3161   0.9824   0
1259.607   0.6865   0.3388   0.9824   0
1259.666   0.3712   0.3127   0.9825   0
1259.726   0.6231   0.3340   0.9825   0
1259.786   0.8123   0.3493   0.9826   0
1259.846   0.5292   0.3271   0.9826   0
1259.906   0.4978   0.3244   0.9826   0
1259.966   0.5297   0.3263   0.9827   0
1260.025   0.3394   0.3101   0.9827   0
1260.085   0.3706   0.3128   0.9828   0
1260.145   0.1492   0.2915   0.9828   0
1260.205   0.0219   0.2788   0.9829   0
1260.265   0.1482   0.2918   0.9829   0
1260.324   0.1804   0.2950   0.9830   0
1260.384   0.0869   0.2854   0.9830   0
1260.444   -0.0082   0.2754   0.9830   0
1260.504   0.0859   0.2853   0.9831   0
1260.564   -0.0091   0.2754   0.9831   0
1260.624   0.0208   0.2786   0.9832   0
1260.683   0.1144   0.2884   0.9832   0
1260.743   0.1151   0.2881   0.9833   0
1260.803   0.2429   0.3004   0.9833   0
1260.863   0.3723   0.3126   0.9834   0
1260.923   0.3177   0.3084   0.9834   0
1260.982   0.1859   0.2973   0.9834   0
1261.042   0.5477   0.3290   0.9835   0
1261.102   0.4184   0.3191   0.9835   0
1261.162   0.2959   0.3090   0.9836   0
1261.222   0.4073   0.3217   0.9836   0
1261.282   0.3669   0.3162   0.9837   0
1261.341   0.1851   0.2979   0.9837   0
1261.401   0.1497   0.2937   0.9837   0
1261.461   0.1817   0.2965   0.9838   0
1261.521   0.2085   0.2976   0.9838   0
1261.581   0.0794   0.2850   0.9839   0
1261.641   0.1439   0.2913   0.9839   0
1261.700   0.1438   0.2913   0.9839   0
1261.760   0.0493   0.2815   0.9840   0
1261.820   0.1433   0.2913   0.9840   0
1261.880   0.0791   0.2848   0.9841   0
1261.940   0.2384   0.3006   0.9841   0
1261.999   0.3019   0.3060   0.9841   0
1262.059   0.2383   0.3005   0.9842   0
1262.119   0.1744   0.2943   0.9842   0
1262.179   0.2059   0.2972   0.9843   0
1262.239   0.0806   0.2848   0.9843   0
1262.298   0.1144   0.2881   0.9843   0
1262.358   0.0512   0.2816   0.9844   0
1262.418   0.0813   0.2847   0.9844   0
1262.478   -0.0140   0.2750   0.9845   0
1262.538   0.0496   0.2815   0.9845   0
1262.598   0.0504   0.2815   0.9845   0
1262.657   0.0189   0.2783   0.9846   0
1262.717   0.0185   0.2781   0.9846   0
1262.777   0.1128   0.2876   0.9847   0
1262.837   0.0819   0.2848   0.9847   0
1262.897   0.2401   0.2996   0.9847   0
1262.957   0.4609   0.3194   0.9848   0
1263.016   0.5228   0.3254   0.9848   0
1263.076   0.5868   0.3307   0.9848   0
1263.136   0.5552   0.3280   0.9849   0
1263.196   0.8070   0.3476   0.9849   0
1263.256   0.7131   0.3410   0.9850   0
1263.315   0.7759   0.3449   0.9850   0
1263.375   0.6814   0.3382   0.9850   0
1263.435   0.6524   0.3358   0.9851   0
1263.495   0.8099   0.3480   0.9851   0
1263.555   0.8096   0.3496   0.9851   1
1263.615   0.7151   0.3400   0.9852   1
1263.674   0.7152   0.3411   0.9852   1
1263.734   0.7443   0.3430   0.9852   1
1263.794   0.6804   0.3378   0.9853   1
1263.854   0.6794   0.3378   0.9853   1
1263.914   0.7410   0.3424   0.9854   1
1263.974   0.9642   0.3600   0.9854   1
1264.033   1.2139   0.3758   0.9854   1
1264.093   0.7938   0.3484   0.9855   1
1264.153   1.5376   0.4037   0.9855   1
1264.213   1.0490   0.3705   0.9855   1
1264.273   0.8809   0.3572   0.9856   1
1264.332   0.8799   0.3566   0.9856   1
1264.392   0.8177   0.3529   0.9856   1
1264.452   0.9006   0.3566   0.9857   1
1264.512   0.8846   0.3554   0.9857   1
1264.572   1.0798   0.3672   0.9857   1
1264.631   0.8596   0.3522   0.9858   1
1264.691   0.8604   0.3510   0.9858   1
1264.751   1.0192   0.3641   0.9858   1
1264.811   0.9572   0.3587   0.9859   1
1264.871   0.8628   0.3513   0.9859   1
1264.931   1.0810   0.3687   0.9859   1
1264.990   0.6089   0.3317   0.9860   1
1265.050   1.2710   0.3789   0.9860   1
1265.110   0.8919   0.3547   0.9860   1
1265.170   0.9257   0.3575   0.9861   1
1265.230   0.8933   0.3534   0.9861   1
1265.290   0.9879   0.3606   0.9861   1
1265.349   1.1759   0.3747   0.9862   1
1265.409   1.1134   0.3678   0.9862   1
1265.469   0.8640   0.3504   0.9862   1
1265.529   1.1147   0.3718   0.9863   1
1265.589   0.7396   0.3434   0.9863   1
1265.648   0.7727   0.3459   0.9863   1
1265.708   1.0237   0.3647   0.9864   1
1265.768   0.6479   0.3357   0.9864   1
1265.828   0.9295   0.3575   0.9864   1
1265.888   1.2137   0.3774   0.9865   1
1265.948   1.0881   0.3685   0.9865   1
1266.007   0.7122   0.3422   0.9865   1
1266.067   0.5852   0.3305   0.9866   1
1266.127   0.9916   0.3620   0.9866   1
1266.187   0.6006   0.3332   0.9866   1
1266.247   0.9510   0.3627   0.9866   1
1266.306   1.0515   0.3739   0.9867   1
1266.366   0.6863   0.3460   0.9867   1
1266.426   0.7660   0.3549   0.9867   1
1266.486   0.5412   0.3337   0.9868   1
1266.546   0.9392   0.3654   0.9868   1
1266.606   0.6589   0.3385   0.9868   1
1266.665   0.5788   0.3305   0.9869   1
1266.725   0.6385   0.3360   0.9869   1
1266.785   0.7657   0.3467   0.9869   1
1266.845   0.5770   0.3307   0.9869   1
1266.905   0.2636   0.3033   0.9870   1
1266.964   0.5780   0.3300   0.9870   1
1267.024   0.3585   0.3121   0.9870   1
1267.084   0.6093   0.3328   0.9871   1
1267.144   0.7980   0.3486   0.9871   1
1267.204   0.6077   0.3325   0.9871   1
1267.264   0.7958   0.3482   0.9872   1
1267.323   0.6385   0.3354   0.9872   1
1267.383   0.6067   0.3321   0.9872   1
1267.443   0.6063   0.3324   0.9872   1
1267.503   0.7029   0.3408   0.9873   1
1267.563   0.7672   0.3461   0.9873   1
1267.622   0.8614   0.3523   0.9873   1
1267.682   0.8005   0.3494   0.9874   1
1267.742   0.8320   0.3516   0.9874   1
1267.802   0.6440   0.3368   0.9874   1
1267.862   1.1443   0.3716   0.9874   1
1267.922   0.9246   0.3575   0.9875   1
1267.981   0.9552   0.3602   0.9875   1
1268.041   1.1113   0.3717   0.9875   1
1268.101   0.9863   0.3638   0.9876   1
1268.161   0.8306   0.3513   0.9876   1
1268.221   0.8931   0.3558   0.9876   1
1268.281   0.9217   0.3571   0.9876   1
1268.340   1.0763   0.3678   0.9877   1
1268.400   1.0152   0.3647   0.9877   1
1268.460   1.0455   0.3676   0.9877   1
1268.520   0.8633   0.3537   0.9877   1
1268.580   0.9483   0.3607   0.9878   1
1268.639   1.1344   0.3784   0.9878   1
1268.699   1.2421   0.3898   0.9878   1
1268.759   1.2623   0.3926   0.9878   1
1268.819   0.9510   0.3685   0.9879   1
1268.879   1.0595   0.3750   0.9879   1
1268.938   0.6999   0.3446   0.9879   1
1268.998   1.1665   0.3776   0.9880   1
1269.058   0.8389   0.3523   0.9880   1
1269.118   1.1795   0.3763   0.9880   1
1269.178   0.9862   0.3628   0.9880   1
1269.238   0.8620   0.3534   0.9881   1
1269.297   1.2586   0.3834   0.9881   1
1269.357   0.7540   0.3505   0.9881   1
1269.417   0.9463   0.3675   0.9881   1
1269.477   0.8840   0.3624   0.9882   1
1269.537   0.8715   0.3637   0.9882   1
1269.597   1.0222   0.3737   0.9882   1
1269.656   0.9091   0.3641   0.9882   1
1269.716   0.7937   0.3542   0.9883   1
1269.776   1.1637   0.3814   0.9883   1
1269.836   0.8981   0.3599   0.9883   1
1269.896   1.0177   0.3673   0.9883   1
1269.955   0.8928   0.3563   0.9884   1
1270.015   1.0109   0.3636   0.9884   1
1270.075   0.7624   0.3472   0.9884   1
1270.135   0.8035   0.3509   0.9884   1
1270.195   0.7027   0.3424   0.9885   1
1270.255   0.7948   0.3491   0.9885   1
1270.314   0.8878   0.3553   0.9885   1
1270.374   1.0127   0.3662   0.9885   1
1270.434   1.0457   0.3669   0.9886   1
1270.494   1.1710   0.3768   0.9886   1
1270.554   1.0464   0.3674   0.9886   1
1270.614   0.7595   0.3214   0.9886   1
1270.673   0.7961   0.3496   0.9887   1
1270.733   1.1396   0.3735   0.9887   1
1270.793   0.6119   0.3337   0.9887   1
1270.853   0.8927   0.3575   0.9887   1
1270.913   0.9449   0.4168   0.9888   1
1270.972   0.4030   0.3683   0.9888   1
1271.032   0.9033   0.4131   0.9888   1
1271.092   0.6976   0.3957   0.9888   1
1271.152   0.6981   0.3957   0.9888   1
1271.212   0.6986   0.3955   0.9889   1
1271.271   1.0340   0.4258   0.9889   1
1271.331   0.9234   0.4160   0.9889   1
1271.391   0.6047   0.3909   0.9889   1
1271.451   0.8426   0.4166   0.9890   1
1271.511   0.7716   0.4088   0.9890   1
1271.571   1.0479   0.4356   0.9890   1
1271.630   1.1612   0.4459   0.9890   1
1271.690   0.7751   0.4143   0.9891   1
1271.750   0.9552   0.4336   0.9891   1
1271.810   0.8437   0.4218   0.9891   1
1271.870   0.9982   0.4330   0.9891   1
1271.930   0.9067   0.4190   0.9891   1
1271.989   0.8903   0.4158   0.9892   1
1272.049   0.9944   0.4210   0.9892   1
1272.109   1.2024   0.4394   0.9892   1
1272.169   1.1582   0.4347   0.9892   1
1272.229   1.2796   0.4449   0.9893   1
1272.288   1.3967   0.4514   0.9893   1
1272.348   0.9813   0.4214   0.9893   1
1272.408   1.2310   0.4404   0.9893   1
1272.468   1.2495   0.4417   0.9893   1
1272.528   0.8598   0.4151   0.9894   1
1272.588   1.0301   0.4286   0.9894   1
1272.647   1.2082   0.4447   0.9894   1
1272.707   0.9122   0.4183   0.9894   1
1272.767   0.8709   0.4158   0.9895   1
1272.827   0.7332   0.4038   0.9895   1
1272.887   0.8081   0.4099   0.9895   1
1272.946   0.9408   0.4164   0.9895   1
1273.006   0.6498   0.3929   0.9895   1
1273.066   1.5648   0.4643   0.9896   1
1273.126   1.1525   0.4347   0.9896   1
1273.186   0.5681   0.3847   0.9896   1
1273.246   1.0266   0.4241   0.9896   1
1273.305   0.9846   0.4206   0.9896   1
1273.365   0.8996   0.4147   0.9897   1
1273.425   1.0259   0.4244   0.9897   1
1273.485   0.8154   0.4061   0.9897   1
1273.545   0.6912   0.3966   0.9897   1
1273.604   0.8656   0.4119   0.9897   1
1273.664   0.7198   0.4016   0.9898   1
1273.724   0.8869   0.4196   0.9898   1
1273.784   0.8313   0.4218   0.9898   1
1273.844   1.1568   0.4671   0.9898   1
1273.904   1.3441   0.5808   0.9898   1
1273.963   0.3479   0.4562   0.9899   1
1274.023   1.0781   0.5366   0.9899   1
1274.083   1.4132   0.5623   0.9899   1
1274.143   1.0736   0.5269   0.9899   1
1274.203   0.6143   0.4772   0.9899   1
1274.262   0.9231   0.5116   0.9900   1
1274.322   0.7945   0.4969   0.9900   1
1274.382   1.3608   0.5537   0.9900   1
1274.442   0.6722   0.4849   0.9900   1
1274.502   0.9421   0.5149   0.9900   1
1274.562   1.0660   0.5305   0.9901   1
1274.621   1.0624   0.5490   0.9901   1
1274.681   1.1216   0.5521   0.9901   1
1274.741   1.2905   0.5673   0.9901   1
1274.801   0.3589   0.4554   0.9901   1
1274.861   0.7081   0.4986   0.9902   1
1274.921   0.8099   0.5051   0.9902   1
1274.980   1.0471   0.5298   0.9902   1
1275.040   0.9896   0.5159   0.9902   1
1275.100   1.1141   0.5278   0.9902   1
1275.160   0.4900   0.4633   0.9903   1
1275.220   1.0509   0.5255   0.9903   1
1275.279   0.8653   0.5050   0.9903   1
1275.339   0.9952   0.5210   0.9903   1
1275.399   1.1240   0.5317   0.9903   1
1275.459   1.0505   0.5246   0.9904   1
1275.519   1.1108   0.5300   0.9904   1
1275.578   0.7962   0.4994   0.9904   1
1275.638   0.9194   0.5113   0.9904   1
1275.698   1.2306   0.5418   0.9904   1
1275.758   1.1690   0.5343   0.9905   1
1275.818   0.3576   0.4479   0.9905   1
1275.878   0.8558   0.5037   0.9905   1
1275.938   1.1677   0.5928   0.9905   1
1275.997   0.8430   0.7103   0.9905   1
1276.057   1.0893   0.7411   0.9906   1
1276.117   1.8409   0.8374   0.9906   1
1276.177   0.9654   0.7289   0.9906   1
1276.237   0.8423   0.7124   0.9907   1
1276.296   1.0977   0.7506   0.9909   1
1276.356   0.6009   0.6746   0.9912   1
1276.416   1.2309   0.7677   0.9921   1
1276.476   1.2352   0.7676   0.9951   1
