# Best-fit normalized data and profile from VoigtFit
# column 1 : Wavelength
# column 2 : Normalized flux
# column 3 : Normalized error
# column 4 : Best-fit profile
# column 5 : Pixel mask, 1=included, 0=excluded
1154.890   0.3467   0.4691   0.9944   1
1154.950   0.6658   0.5001   0.9912   1
1155.009   0.4464   0.4778   0.9905   1
1155.069   0.5448   0.4860   0.9902   1
1155.129   0.6997   0.5012   0.9900   1
1155.189   0.4462   0.4770   0.9900   1
1155.249   0.4439   0.4762   0.9899   1
1155.308   0.6658   0.4932   0.9899   1
1155.368   0.7118   0.4968   0.9898   1
1155.428   0.8551   0.5072   0.9898   1
1155.488   0.8529   0.5072   0.9898   1
1155.548   0.7081   0.4959   0.9897   1
1155.608   0.7559   0.4975   0.9897   1
1155.667   0.8512   0.5073   0.9897   1
1155.727   1.0913   0.5229   0.9897   1
1155.787   0.8034   0.5026   0.9896   1
1155.847   0.7081   0.4938   0.9896   1
1155.907   0.8971   0.5084   0.9896   1
1155.966   0.5619   0.4809   0.9896   1
1156.026   0.4182   0.4656   0.9896   1
1156.086   0.6577   0.4880   0.9895   1
1156.146   0.7055   0.4922   0.9895   1
1156.206   0.7522   0.4951   0.9895   1
1156.266   0.8458   0.5040   0.9895   1
1156.325   0.7967   0.4979   0.9894   1
1156.385   0.4645   0.4702   0.9894   1
1156.445   0.6538   0.4869   0.9894   1
1156.505   0.7014   0.4898   0.9894   1
1156.565   0.7478   0.4925   0.9894   1
1156.625   0.8451   0.5020   0.9893   1
1156.684   1.0560   0.5202   0.9893   1
1156.744   0.5850   0.4835   0.9893   1
1156.804   0.6912   0.4934   0.9893   1
1156.864   0.7814   0.4993   0.9892   1
1156.924   0.8806   0.5071   0.9892   1
1156.983   0.6856   0.4892   0.9892   1
1157.043   0.4380   0.4683   0.9892   1
1157.103   0.4349   0.4658   0.9892   1
1157.163   0.8858   0.5033   0.9891   1
1157.223   0.9311   0.5077   0.9891   1
1157.282   0.7407   0.4902   0.9891   1
1157.342   0.6947   0.4857   0.9891   1
1157.402   0.5083   0.4698   0.9890   1
1157.462   0.5538   0.4730   0.9890   1
1157.522   0.7858   0.4933   0.9890   1
1157.582   0.8795   0.4998   0.9890   1
1157.641   0.8335   0.4967   0.9890   1
1157.701   0.9729   0.5083   0.9889   1
1157.761   0.9703   0.5066   0.9889   1
1157.821   0.9234   0.5039   0.9889   1
1157.881   0.9207   0.5030   0.9889   1
1157.941   0.5930   0.4759   0.9888   1
1158.000   1.0575   0.5129   0.9888   1
1158.060   0.9184   0.5028   0.9888   1
1158.120   0.5458   0.4713   0.9888   1
1158.180   0.8245   0.4940   0.9887   1
1158.240   0.7325   0.4867   0.9887   1
1158.299   0.6407   0.4777   0.9887   1
1158.359   0.9173   0.5001   0.9887   1
1158.419   1.1965   0.5212   0.9886   1
1158.479   1.1957   0.5237   0.9886   1
1158.539   0.4083   0.4566   0.9886   1
1158.599   0.9641   0.5045   0.9886   1
1158.658   0.8227   0.4920   0.9885   1
1158.718   0.9142   0.5003   0.9885   1
1158.778   0.4533   0.4611   0.9885   1
1158.838   0.8685   0.4960   0.9885   1
1158.898   1.1924   0.5214   0.9884   1
1158.958   0.8225   0.4920   0.9884   1
1159.017   0.6378   0.4770   0.9884   1
1159.077   0.8659   0.4934   0.9884   1
1159.137   0.5892   0.4712   0.9883   1
1159.197   0.4051   0.4554   0.9883   1
1159.257   0.7286   0.4807   0.9883   1
1159.316   1.1411   0.5165   0.9883   1
1159.376   0.7282   0.4811   0.9882   1
1159.436   0.6367   0.4739   0.9882   1
1159.496   0.8201   0.4890   0.9882   1
1159.556   1.0489   0.5079   0.9882   1
1159.615   1.0020   0.5025   0.9881   1
1159.675   0.5898   0.4706   0.9881   1
1159.735   0.6354   0.4747   0.9881   1
1159.795   0.5067   0.4641   0.9881   1
1159.855   0.6149   0.4746   0.9880   1
1159.915   0.2829   0.4446   0.9880   1
1159.974   0.3788   0.4531   0.9880   1
1160.034   0.5644   0.4682   0.9880   1
1160.094   0.4126   0.4220   0.9879   1
1160.154   0.5965   0.4745   0.9879   1
1160.214   0.4914   0.4658   0.9879   1
1160.274   0.5666   0.4713   0.9879   1
1160.333   0.2281   0.4374   0.9878   1
1160.393   0.8064   0.4893   0.9878   1
1160.453   0.7068   0.4815   0.9878   1
1160.513   0.8871   0.4942   0.9877   1
1160.573   0.5916   0.4690   0.9877   1
1160.632   0.3074   0.4420   0.9877   1
1160.692   1.1254   0.5105   0.9877   1
1160.752   0.7175   0.4787   0.9876   1
1160.812   0.9909   0.5008   0.9876   1
1160.872   1.1262   0.5089   0.9876   1
1160.932   1.1271   0.5090   0.9876   1
1160.991   0.7672   0.4796   0.9875   1
1161.051   1.1739   0.5145   0.9875   1
1161.111   0.8564   0.4871   0.9875   1
1161.171   0.7658   0.4788   0.9874   1
1161.231   0.7218   0.4764   0.9874   1
1161.290   0.5859   0.4642   0.9874   1
1161.350   0.5845   0.4650   0.9874   1
1161.410   1.0373   0.5018   0.9873   1
1161.470   0.6741   0.4713   0.9873   1
1161.530   1.1684   0.5128   0.9873   1
1161.590   0.6715   0.4709   0.9872   1
1161.649   0.5805   0.4641   0.9872   1
1161.709   0.9855   0.4967   0.9872   1
1161.769   0.5803   0.4644   0.9872   1
1161.829   1.0768   0.5043   0.9871   1
1161.889   0.6701   0.4720   0.9871   1
1161.948   1.1211   0.5061   0.9871   1
1162.008   0.3983   0.4464   0.9870   1
1162.068   0.5773   0.4630   0.9870   1
1162.128   0.6644   0.4698   0.9870   1
1162.188   0.7092   0.4732   0.9870   1
1162.248   0.5306   0.4568   0.9869   1
1162.307   0.7109   0.4736   0.9869   1
1162.367   0.7562   0.4760   0.9869   1
1162.427   0.8449   0.4847   0.9868   1
1162.487   1.0261   0.4967   0.9868   1
1162.547   0.6668   0.4701   0.9868   1
1162.606   0.7565   0.4766   0.9867   1
1162.666   0.8012   0.4819   0.9867   1
1162.726   0.8456   0.4822   0.9867   1
1162.786   0.7543   0.4748   0.9867   1
1162.846   0.7109   0.4718   0.9866   1
1162.906   0.6213   0.4647   0.9866   1
1162.965   0.9357   0.4900   0.9866   1
1163.025   0.5757   0.4596   0.9865   1
1163.085   0.8458   0.4835   0.9865   1
1163.145   1.1133   0.5026   0.9865   1
1163.205   0.3967   0.4441   0.9864   1
1163.265   0.6473   0.4694   0.9864   1
1163.324   0.5604   0.4615   0.9864   1
1163.384   0.7432   0.4781   0.9863   1
1163.444   0.6486   0.4696   0.9863   1
1163.504   0.7923   0.4830   0.9863   1
1163.564   1.1746   0.5139   0.9862   1
1163.623   0.5564   0.4599   0.9862   1
1163.683   0.7340   0.4767   0.9862   1
1163.743   0.6746   0.4675   0.9861   1
1163.803   0.8884   0.4839   0.9861   1
1163.863   0.4412   0.4458   0.9861   1
1163.922   0.8424   0.4789   0.9861   1
1163.982   0.9312   0.4877   0.9860   1
1164.042   0.6187   0.4617   0.9860   1
1164.102   0.8406   0.4809   0.9860   1
1164.162   0.6651   0.4651   0.9859   1
1164.222   0.8873   0.4851   0.9859   1
1164.281   0.8416   0.4803   0.9859   0
1164.341   0.6626   0.4643   0.9858   0
1164.401   0.7054   0.4673   0.9858   0
1164.461   0.4381   0.4434   0.9858   0
1164.521   0.8343   0.4776   0.9857   0
1164.581   0.6550   0.4638   0.9857   0
1164.640   0.6541   0.4624   0.9856   0
1164.700   0.6982   0.4663   0.9856   0
1164.760   0.8764   0.4809   0.9856   0
1164.820   0.7433   0.4716   0.9855   0
1164.880   0.9212   0.4847   0.9855   0
1164.939   0.8314   0.4763   0.9855   0
1164.999   0.9186   0.4839   0.9854   0
1165.059   1.0079   0.4913   0.9854   0
1165.119   0.5901   0.4590   0.9854   0
1165.179   0.7248   0.4703   0.9853   0
1165.239   0.9579   0.4898   0.9853   0
1165.298   0.5894   0.4592   0.9853   0
1165.358   0.6841   0.4663   0.9852   0
1165.418   0.7328   0.4688   0.9852   0
1165.478   0.9057   0.4851   0.9852   0
1165.538   0.9927   0.4917   0.9851   0
1165.598   0.9268   0.4842   0.9851   0
1165.657   0.7817   0.4712   0.9851   0
1165.717   0.7828   0.4714   0.9850   0
1165.777   0.3437   0.4325   0.9850   0
1165.837   0.8245   0.4740   0.9849   0
1165.897   0.8676   0.4757   0.9849   0
1165.956   0.7363   0.4649   0.9849   0
1166.016   0.6486   0.4581   0.9848   0
1166.076   0.5165   0.4470   0.9848   0
1166.136   0.6048   0.4543   0.9848   0
1166.196   0.6918   0.4621   0.9847   0
1166.255   0.7798   0.4685   0.9847   0
1166.315   0.6936   0.4625   0.9846   0
1166.375   0.6917   0.4619   0.9846   0
1166.435   0.8677   0.4737   0.9846   0
1166.495   0.5625   0.4497   0.9845   0
1166.555   0.4748   0.4406   0.9845   0
1166.614   0.7790   0.4666   0.9845   0
1166.674   0.8656   0.4739   0.9844   0
1166.734   0.6032   0.4524   0.9844   0
1166.794   0.6464   0.4545   0.9843   0
1166.854   0.5597   0.4478   0.9843   0
1166.914   0.7330   0.4600   0.9843   0
1166.973   0.6876   0.4588   0.9842   0
1167.033   0.5139   0.4425   0.9842   0
1167.093   0.3844   0.4320   0.9841   0
1167.153   0.7308   0.4609   0.9841   0
1167.213   0.5568   0.4476   0.9841   0
1167.272   0.4273   0.4360   0.9840   0
1167.332   0.7303   0.4614   0.9840   0
1167.392   0.6009   0.4488   0.9839   0
1167.452   0.4706   0.4389   0.9839   0
1167.512   0.2977   0.4228   0.9839   0
1167.572   0.4711   0.4381   0.9838   0
1167.631   1.0337   0.4838   0.9838   0
1167.691   0.7740   0.4653   0.9837   0
1167.751   0.6012   0.4488   0.9837   0
1167.811   0.5574   0.4450   0.9837   0
1167.871   0.6868   0.4558   0.9836   0
1167.930   0.3844   0.4294   0.9836   0
1167.990   0.6857   0.4545   0.9835   0
1168.050   0.6432   0.4505   0.9835   0
1168.110   0.3846   0.4287   0.9835   0
1168.170   0.6416   0.4517   0.9834   0
1168.230   0.7535   0.4636   0.9834   0
1168.289   0.7210   0.4601   0.9833   0
1168.349   0.5827   0.4482   0.9833   0
1168.409   0.8982   0.4734   0.9832   0
1168.469   0.5935   0.4506   0.9832   0
1168.529   0.6546   0.4545   0.9832   0
1168.589   0.6616   0.4558   0.9831   0
1168.648   0.6574   0.4559   0.9831   0
1168.708   0.6860   0.4587   0.9830   0
1168.768   0.5805   0.4493   0.9830   0
1168.828   1.0319   0.4852   0.9829   0
1168.888   0.6670   0.4545   0.9829   0
1168.947   0.5675   0.4451   0.9829   0
1169.007   0.5977   0.4469   0.9828   0
1169.067   0.6323   0.4465   0.9828   0
1169.127   0.5455   0.4408   0.9827   0
1169.187   0.2462   0.4135   0.9827   0
1169.246   0.8412   0.4640   0.9826   0
1169.306   0.7554   0.4564   0.9826   0
1169.366   0.4583   0.4324   0.9825   0
1169.426   0.5843   0.4427   0.9825   0
1169.486   0.5005   0.4345   0.9825   0
1169.546   0.5857   0.4429   0.9824   0
1169.605   0.5436   0.4391   0.9824   0
1169.665   0.3740   0.4238   0.9823   0
1169.725   0.7547   0.4558   0.9823   0
1169.785   0.8380   0.4614   0.9822   0
1169.845   0.6669   0.4495   0.9822   0
1169.905   0.4117   0.4263   0.9821   0
1169.964   0.7510   0.4553   0.9821   0
1170.024   0.3711   0.4221   0.9820   0
1170.084   0.6691   0.4480   0.9820   0
1170.144   0.9238   0.4684   0.9819   0
1170.204   0.5013   0.4335   0.9819   0
1170.263   0.4154   0.4260   0.9818   0
1170.323   0.4142   0.4241   0.9818   0
1170.383   0.2861   0.4133   0.9817   0
1170.443   0.7116   0.4524   0.9817   0
1170.503   0.3314   0.4178   0.9816   0
1170.562   0.5431   0.4363   0.9816   0
1170.622   0.7965   0.4566   0.9816   0
1170.682   0.2470   0.4092   0.9815   0
1170.742   0.3739   0.4212   0.9815   0
1170.802   0.7527   0.4530   0.9814   0
1170.862   0.3735   0.4197   0.9814   0
1170.922   0.3311   0.4160   0.9813   0
1170.981   0.5834   0.4387   0.9813   0
1171.041   0.2880   0.4113   0.9812   0
1171.101   0.3293   0.4157   0.9812   0
1171.161   0.5394   0.4347   0.9811   0
1171.221   0.3295   0.4157   0.9811   0
1171.280   0.2463   0.4079   0.9810   0
1171.340   0.2889   0.4112   0.9809   0
1171.400   0.3733   0.4201   0.9809   0
1171.460   0.3299   0.4150   0.9808   0
1171.520   0.6237   0.4416   0.9808   0
1171.579   0.5006   0.4312   0.9807   0
1171.639   0.5107   0.4333   0.9807   0
1171.699   0.4316   0.4277   0.9806   0
1171.759   0.3004   0.4160   0.9806   0
1171.819   0.3922   0.4237   0.9805   0
1171.879   0.5237   0.4364   0.9805   0
1171.938   0.3905   0.4241   0.9804   0
1171.998   0.4329   0.4276   0.9804   0
1172.058   0.3454   0.4185   0.9803   0
1172.118   0.5528   0.4373   0.9803   0
1172.178   0.3710   0.4188   0.9802   0
1172.238   0.2021   0.4028   0.9802   0
1172.297   0.4107   0.4229   0.9801   0
1172.357   0.2840   0.4113   0.9800   0
1172.417   0.4531   0.4267   0.9800   0
1172.477   0.3700   0.4194   0.9799   0
1172.537   0.3700   0.4186   0.9799   0
1172.596   0.2851   0.4109   0.9798   0
1172.656   0.5789   0.4359   0.9798   0
1172.716   0.4962   0.4301   0.9797   0
1172.776   0.7905   0.4536   0.9797   0
1172.836   0.4135   0.4230   0.9796   0
1172.896   0.3716   0.4191   0.9795   0
1172.955   0.4130   0.4235   0.9795   0
1173.015   0.4126   0.4234   0.9794   0
1173.075   0.2033   0.4036   0.9794   0
1173.135   0.4128   0.4231   0.9793   0
1173.195   0.4133   0.4233   0.9793   0
1173.254   0.3299   0.4157   0.9792   0
1173.314   0.6244   0.4417   0.9791   0
1173.374   0.2054   0.4038   0.9791   0
1173.434   0.4165   0.4223   0.9790   0
1173.494   0.3413   0.4181   0.9790   0
1173.554   0.7396   0.4542   0.9789   0
1173.613   0.8346   0.4639   0.9788   0
1173.673   0.4832   0.4316   0.9788   0
1173.733   0.3464   0.4199   0.9787   0
1173.793   0.2137   0.4075   0.9787   0
1173.853   0.6547   0.4477   0.9786   0
1173.912   0.2563   0.4112   0.9785   0
1173.972   0.3360   0.4178   0.9785   0
1174.032   0.7518   0.4515   0.9784   0
1174.092   0.3709   0.4199   0.9783   0
1174.152   0.2865   0.4114   0.9783   0
1174.212   0.3698   0.4200   0.9782   0
1174.271   0.3701   0.4205   0.9782   0
1174.331   0.4120   0.4245   0.9781   0
1174.391   0.2445   0.4086   0.9780   0
1174.451   0.3287   0.4163   0.9780   0
1174.511   0.2858   0.4124   0.9779   0
1174.570   0.2861   0.4127   0.9778   0
1174.630   0.4964   0.4326   0.9778   0
1174.690   0.4560   0.4274   0.9777   0
1174.750   0.1202   0.3962   0.9777   0
1174.810   0.2023   0.4049   0.9776   0
1174.870   0.2027   0.4042   0.9775   0
1174.929   0.2434   0.4087   0.9775   0
1174.989   0.6193   0.4429   0.9774   0
1175.049   0.4128   0.4254   0.9773   0
1175.109   0.4968   0.4330   0.9773   0
1175.169   0.2876   0.4139   0.9772   0
1175.229   0.2878   0.4134   0.9771   0
1175.288   0.4125   0.4260   0.9771   0
1175.348   0.1593   0.4017   0.9770   0
1175.408   0.4528   0.4279   0.9769   0
1175.468   0.6213   0.4439   0.9769   0
1175.528   0.7057   0.4519   0.9768   0
1175.587   0.4107   0.4251   0.9767   0
1175.647   0.2413   0.4099   0.9766   0
1175.707   0.7456   0.4534   0.9766   0
1175.767   0.7864   0.4585   0.9765   0
1175.827   0.7873   0.4559   0.9764   0
1175.886   0.4081   0.4254   0.9764   0
1175.946   0.6188   0.4438   0.9763   0
1176.006   0.3667   0.4228   0.9762   0
1176.066   0.6186   0.4444   0.9762   0
1176.126   0.4087   0.4263   0.9761   0
1176.186   0.3649   0.4222   0.9760   0
1176.245   0.4922   0.4337   0.9759   0
1176.305   0.2411   0.4113   0.9759   0
1176.365   0.3680   0.4238   0.9758   0
1176.425   0.6234   0.4444   0.9757   0
1176.485   0.4961   0.4352   0.9756   0
1176.545   0.4529   0.4312   0.9756   0
1176.604   0.5040   0.4377   0.9755   0
1176.664   0.5999   0.4457   0.9754   0
1176.724   0.4726   0.4361   0.9753   0
1176.784   0.5248   0.4426   0.9753   0
1176.844   0.4381   0.4339   0.9752   0
1176.903   0.4006   0.4312   0.9751   0
1176.963   0.5050   0.4439   0.9750   0
1177.023   0.5042   0.4437   0.9750   0
1177.083   0.7279   0.4615   0.9749   0
1177.143   0.4807   0.4389   0.9748   0
1177.203   0.5641   0.4468   0.9747   0
1177.262   0.6082   0.4499   0.9747   0
1177.322   0.3845   0.4288   0.9746   0
1177.382   0.5092   0.4403   0.9745   0
1177.442   0.5838   0.4458   0.9744   0
1177.502   0.3729   0.4265   0.9743   0
1177.562   0.4575   0.4349   0.9743   0
1177.621   0.5437   0.4417   0.9742   0
1177.681   0.5736   0.4122   0.9741   0
1177.741   0.8403   0.4675   0.9740   0
1177.801   0.4596   0.4347   0.9739   0
1177.861   0.4605   0.4360   0.9739   0
1177.920   0.8013   0.4636   0.9738   0
1177.980   0.5470   0.4434   0.9737   0
1178.040   0.2058   0.4128   0.9736   0
1178.100   0.5484   0.4438   0.9735   0
1178.160   0.5924   0.4473   0.9734   0
1178.219   0.7176   0.4577   0.9734   0
1178.279   0.6328   0.4486   0.9733   0
1178.339   0.6325   0.4523   0.9732   0
1178.399   0.5475   0.4445   0.9731   0
1178.459   0.8478   0.4692   0.9730   0
1178.519   0.3781   0.4298   0.9729   0
1178.578   0.5044   0.4423   0.9729   0
1178.638   0.8022   0.4653   0.9728   0
1178.698   0.7611   0.4647   0.9727   0
1178.758   0.8479   0.4712   0.9726   0
1178.818   0.5050   0.4422   0.9725   0
1178.878   0.8486   0.4727   0.9724   0
1178.937   0.8058   0.4683   0.9723   0
1178.997   0.6765   0.4566   0.9722   0
1179.057   0.6738   0.4569   0.9722   0
1179.117   0.7580   0.4633   0.9721   0
1179.177   0.7570   0.4632   0.9720   0
1179.236   0.6264   0.4528   0.9719   0
1179.296   0.7547   0.4623   0.9718   0
1179.356   0.8822   0.4731   0.9717   0
1179.416   0.8417   0.4689   0.9716   0
1179.476   1.2237   0.4986   0.9715   0
1179.536   1.0093   0.4817   0.9714   0
1179.595   0.7108   0.4582   0.9713   0
1179.655   1.0103   0.4820   0.9712   0
1179.715   0.8816   0.4739   0.9711   0
1179.775   1.0098   0.4804   0.9710   0
1179.835   1.0952   0.4881   0.9709   0
1179.894   0.8815   0.4727   0.9709   0
1179.954   0.5830   0.4474   0.9708   1
1180.014   1.0269   0.4841   0.9707   1
1180.074   0.5657   0.4485   0.9706   1
1180.134   0.9753   0.4825   0.9705   1
1180.194   0.7990   0.4682   0.9704   1
1180.253   0.8389   0.4712   0.9703   1
1180.313   1.1013   0.4900   0.9702   1
1180.373   0.8326   0.4699   0.9701   1
1180.433   1.0071   0.4838   0.9700   1
1180.493   1.0394   0.4844   0.9699   1
1180.552   1.1940   0.4930   0.9698   1
1180.612   1.3113   0.5032   0.9697   1
1180.672   1.3945   0.5083   0.9696   1
1180.732   0.8419   0.4664   0.9695   1
1180.792   0.8826   0.4689   0.9694   1
1180.852   1.0501   0.4812   0.9693   1
1180.911   1.4721   0.5114   0.9692   1
1180.971   0.7944   0.4617   0.9691   1
1181.031   0.6249   0.4469   0.9689   1
1181.091   0.7501   0.4588   0.9688   1
1181.151   0.8353   0.4644   0.9687   1
1181.210   0.9615   0.4736   0.9686   1
1181.270   0.9187   0.4715   0.9685   1
1181.330   1.0462   0.4807   0.9684   1
1181.390   0.7062   0.4525   0.9683   1
1181.450   0.6226   0.4458   0.9682   1
1181.510   0.6215   0.4453   0.9681   1
1181.569   0.9156   0.4686   0.9680   1
1181.629   0.8733   0.4648   0.9679   1
1181.689   0.5781   0.4417   0.9678   1
1181.749   0.7032   0.4514   0.9676   1
1181.809   0.7450   0.4545   0.9675   1
1181.869   1.0515   0.4801   0.9674   1
1181.928   0.7771   0.4596   0.9673   1
1181.988   1.0091   0.4806   0.9672   1
1182.048   0.6078   0.4461   0.9671   1
1182.108   1.0868   0.4842   0.9670   1
1182.168   0.7788   0.4571   0.9669   1
1182.227   1.2545   0.4963   0.9667   1
1182.287   0.8627   0.4637   0.9666   1
1182.347   0.8085   0.4589   0.9665   1
1182.407   1.1310   0.4834   0.9664   1
1182.467   0.8687   0.4621   0.9663   1
1182.526   0.7847   0.4569   0.9662   1
1182.586   0.9517   0.4677   0.9660   1
1182.646   0.4928   0.4306   0.9659   1
1182.706   1.4925   0.5059   0.9658   1
1182.766   0.9508   0.4682   0.9657   1
1182.826   0.9099   0.4634   0.9655   1
1182.885   1.0348   0.4725   0.9654   1
1182.945   0.7001   0.4468   0.9653   1
1183.005   0.7804   0.4525   0.9652   1
1183.065   0.6147   0.4380   0.9651   1
1183.125   1.0267   0.4699   0.9649   1
1183.185   0.9033   0.4609   0.9648   1
1183.244   0.5292   0.4305   0.9647   1
1183.304   0.7768   0.4503   0.9645   1
1183.364   0.6538   0.4411   0.9644   1
1183.424   0.8597   0.4569   0.9643   1
1183.484   0.5708   0.4332   0.9642   1
1183.543   0.9403   0.4624   0.9640   1
1183.603   0.9783   0.4643   0.9639   1
1183.663   1.1012   0.4735   0.9638   1
1183.723   0.7305   0.4453   0.9636   1
1183.783   0.8120   0.4513   0.9635   1
1183.843   0.8119   0.4506   0.9634   1
1183.902   0.7715   0.4477   0.9632   1
1183.962   0.6892   0.4395   0.9631   1
1184.022   1.1393   0.4740   0.9630   1
1184.082   0.8514   0.4530   0.9628   1
1184.142   0.8495   0.4517   0.9627   1
1184.202   0.6845   0.4371   0.9626   1
1184.261   0.6440   0.4340   0.9624   0
1184.321   0.8085   0.4471   0.9623   0
1184.381   0.6024   0.4297   0.9621   0
1184.441   0.9675   0.4593   0.9620   0
1184.501   0.7638   0.4437   0.9619   0
1184.560   0.9269   0.4554   0.9617   0
1184.620   0.6832   0.4349   0.9616   0
1184.680   0.6827   0.4351   0.9614   0
1184.740   0.8840   0.4514   0.9613   0
1184.800   0.3980   0.4110   0.9611   0
1184.859   0.7214   0.4367   0.9610   0
1184.919   0.6804   0.4334   0.9608   0
1184.979   0.7689   0.4403   0.9607   0
1185.039   0.2444   0.3962   0.9605   0
1185.099   0.7143   0.4397   0.9604   0
1185.159   0.4614   0.4173   0.9602   0
1185.219   0.5812   0.4266   0.9601   0
1185.278   0.7502   0.4421   0.9599   0
1185.338   0.5539   0.4263   0.9598   0
1185.398   0.7331   0.4401   0.9596   0
1185.458   0.6381   0.4318   0.9595   0
1185.518   0.5885   0.4269   0.9593   0
1185.577   0.6576   0.4302   0.9592   0
1185.637   0.3659   0.4041   0.9590   0
1185.697   0.4485   0.4114   0.9589   0
1185.757   0.6437   0.4264   0.9587   0
1185.817   0.4281   0.4070   0.9585   0
1185.876   0.6642   0.4262   0.9584   0
1185.936   0.8607   0.4421   0.9582   0
1185.996   0.5835   0.4201   0.9581   0
1186.056   0.7027   0.4296   0.9579   0
1186.116   0.5046   0.4113   0.9577   0
1186.176   0.7398   0.4304   0.9576   0
1186.235   0.7817   0.4331   0.9574   0
1186.295   0.9001   0.4420   0.9572   0
1186.355   0.7822   0.4334   0.9571   0
1186.415   0.8598   0.4399   0.9569   0
1186.475   0.6220   0.4207   0.9567   0
1186.535   0.7392   0.4278   0.9565   0
1186.594   0.5839   0.4161   0.9564   0
1186.654   0.7389   0.4289   0.9562   0
1186.714   0.5416   0.4118   0.9560   0
1186.774   0.4621   0.4044   0.9558   0
1186.834   0.5409   0.4108   0.9557   0
1186.893   0.4606   0.4042   0.9555   0
1186.953   0.5779   0.4132   0.9553   0
1187.013   0.6167   0.4167   0.9551   0
1187.073   0.5757   0.4126   0.9550   0
1187.133   0.4993   0.4051   0.9548   0
1187.193   0.6924   0.4214   0.9546   0
1187.252   0.7698   0.4281   0.9544   0
1187.312   0.6509   0.4191   0.9542   0
1187.372   0.7278   0.4246   0.9540   0
1187.432   0.8046   0.4307   0.9539   0
1187.492   0.8835   0.4368   0.9537   0
1187.551   1.1166   0.4530   0.9535   0
1187.611   0.9604   0.4403   0.9533   0
1187.671   0.6902   0.4196   0.9531   0
1187.731   0.6894   0.4203   0.9529   0
1187.791   0.8830   0.4351   0.9527   0
1187.851   0.9226   0.4379   0.9525   0
1187.910   0.8444   0.4306   0.9523   0
1187.970   0.8043   0.4281   0.9521   0
1188.030   0.7642   0.4251   0.9519   0
1188.090   0.5334   0.4049   0.9517   0
1188.150   0.3787   0.3919   0.9515   0
1188.209   0.6518   0.4145   0.9513   0
1188.269   0.8052   0.4265   0.9511   0
1188.329   0.3802   0.3909   0.9509   0
1188.389   0.3794   0.3903   0.9507   0
1188.449   0.8923   0.4317   0.9505   0
1188.509   0.3917   0.3924   0.9503   0
1188.568   0.5962   0.4120   0.9501   1
1188.628   0.4741   0.4011   0.9499   1
1188.688   0.6358   0.4152   0.9497   1
1188.748   0.6361   0.4142   0.9494   1
1188.808   1.0396   0.4458   0.9492   1
1188.867   0.8348   0.4308   0.9490   1
1188.927   0.6527   0.4114   0.9488   1
1188.987   0.9534   0.4359   0.9486   1
1189.047   0.7223   0.4178   0.9483   1
1189.107   0.7982   0.4230   0.9481   1
1189.167   0.8343   0.4262   0.9479   1
1189.226   0.9857   0.4373   0.9477   1
1189.286   0.8318   0.4265   0.9475   0
1189.346   0.9438   0.4341   0.9472   0
1189.406   0.7915   0.4209   0.9470   0
1189.466   1.0189   0.4386   0.9468   0
1189.526   0.4836   0.3956   0.9465   0
1189.585   0.9417   0.4313   0.9463   0
1189.645   0.7896   0.4205   0.9461   0
1189.705   0.8657   0.4267   0.9458   0
1189.765   0.6733   0.4116   0.9456   0
1189.825   0.6726   0.4110   0.9453   0
1189.884   0.5978   0.4042   0.9451   0
1189.944   0.4064   0.3872   0.9449   0
1190.004   0.6344   0.4072   0.9446   0
1190.064   0.5591   0.4006   0.9444   0
1190.124   0.5951   0.4026   0.9441   0
1190.183   0.1796   0.3666   0.9439   0
1190.243   0.3305   0.3802   0.9436   0
1190.303   0.2569   0.3743   0.9434   0
1190.363   0.1064   0.3598   0.9431   0
1190.423   0.0278   0.3523   0.9429   0
1190.483   0.0675   0.3558   0.9426   0
1190.542   0.1864   0.3679   0.9424   0
1190.602   0.1061   0.3595   0.9421   0
1190.662   0.3033   0.3783   0.9418   0
1190.722   0.4187   0.3890   0.9416   0
1190.782   0.3316   0.3784   0.9413   0
1190.842   0.3983   0.3845   0.9410   0
1190.901   0.5849   0.3997   0.9408   0
1190.961   0.5102   0.3941   0.9405   0
1191.021   0.4721   0.3904   0.9402   0
1191.081   0.4711   0.3893   0.9399   0
1191.141   0.5840   0.3985   0.9397   0
1191.200   0.5463   0.3957   0.9394   0
1191.260   0.4725   0.3893   0.9391   0
1191.320   0.2883   0.3730   0.9388   0
1191.380   0.2508   0.3692   0.9385   0
1191.440   0.4763   0.3891   0.9383   0
1191.500   0.7380   0.4100   0.9380   0
1191.559   0.7380   0.4101   0.9377   0
1191.619   0.4027   0.3820   0.9374   0
1191.679   0.5524   0.3949   0.9371   0
1191.739   0.5534   0.3949   0.9368   0
1191.799   0.3671   0.3782   0.9365   0
1191.859   0.2929   0.3714   0.9362   0
1191.918   0.2564   0.3678   0.9359   0
1191.978   0.3302   0.3746   0.9356   0
1192.038   0.0695   0.3494   0.9353   0
1192.098   0.0702   0.3493   0.9350   0
1192.158   0.0707   0.3490   0.9347   0
1192.217   0.0708   0.3489   0.9343   0
1192.277   -0.0036   0.3411   0.9340   0
1192.337   0.0335   0.3447   0.9337   0
1192.397   0.0337   0.3446   0.9334   0
1192.457   -0.0028   0.3405   0.9331   0
1192.516   -0.0027   0.3404   0.9327   0
1192.576   0.0341   0.3440   0.9324   0
1192.636   0.1070   0.3513   0.9321   0
1192.696   0.1051   0.3511   0.9318   0
1192.756   0.0308   0.3434   0.9314   0
1192.816   0.1786   0.3576   0.9311   0
1192.875   0.1047   0.3505   0.9308   0
1192.935   0.0669   0.3466   0.9304   0
1192.995   0.3246   0.3701   0.9301   0
1193.055   0.2877   0.3669   0.9297   0
1193.115   0.0658   0.3460   0.9294   0
1193.175   0.2496   0.3629   0.9290   0
1193.234   0.0282   0.3420   0.9287   0
1193.294   0.1006   0.3492   0.9283   0
1193.354   0.1002   0.3490   0.9279   0
1193.414   0.0618   0.3452   0.9276   0
1193.474   0.1386   0.3530   0.9272   0
1193.533   0.0624   0.3465   0.9269   0
1193.593   0.3702   0.3765   0.9265   0
1193.653   0.4125   0.3784   0.9261   0
1193.713   0.5043   0.3879   0.9257   0
1193.773   0.3938   0.3802   0.9254   0
1193.833   0.5954   0.3976   0.9250   0
1193.892   0.8167   0.4159   0.9246   0
1193.952   0.6375   0.3980   0.9242   0
1194.012   0.7161   0.4042   0.9238   0
1194.072   0.5650   0.3923   0.9234   0
1194.132   0.1793   0.3557   0.9230   0
1194.191   0.4280   0.3771   0.9226   0
1194.251   0.4273   0.3761   0.9222   0
1194.311   0.4637   0.3795   0.9218   0
1194.371   0.4634   0.3787   0.9214   0
1194.431   0.2824   0.3633   0.9210   0
1194.491   0.4287   0.3754   0.9206   0
1194.550   0.1386   0.3490   0.9202   0
1194.610   0.1376   0.3488   0.9198   0
1194.670   0.3560   0.3683   0.9193   0
1194.730   0.3924   0.3723   0.9189   0
1194.790   0.1019   0.3447   0.9185   0
1194.849   0.3191   0.3641   0.9181   0
1194.909   0.2095   0.3549   0.9176   0
1194.969   0.1373   0.3477   0.9172   0
1195.029   -0.0074   0.3330   0.9167   0
1195.089   0.1004   0.3437   0.9163   0
1195.149   0.0637   0.3399   0.9158   0
1195.208   0.0997   0.3433   0.9154   0
1195.268   -0.0106   0.3076   0.9149   0
1195.328   -0.0116   0.3320   0.9145   0
1195.388   -0.0113   0.3318   0.9140   0
1195.448   0.0968   0.3424   0.9135   0
1195.507   -0.0125   0.3315   0.9131   0
1195.567   0.0605   0.3386   0.9126   0
1195.627   -0.0117   0.3311   0.9121   0
1195.687   -0.0115   0.3309   0.9116   0
1195.747   0.2033   0.3516   0.9111   0
1195.807   0.1670   0.3486   0.9106   0
1195.866   0.3110   0.3608   0.9101   0
1195.926   0.5608   0.3819   0.9096   0
1195.986   0.4515   0.3735   0.9091   0
1196.046   0.5237   0.3783   0.9086   0
1196.106   0.6678   0.3904   0.9081   0
1196.166   0.4524   0.3726   0.9076   0
1196.225   0.7378   0.3952   0.9071   0
1196.285   0.5262   0.3773   0.9066   0
1196.345   0.6336   0.3870   0.9060   0
1196.405   0.8112   0.4020   0.9055   0
1196.465   0.7395   0.3950   0.9050   0
1196.524   0.7052   0.3926   0.9044   0
1196.584   0.5623   0.3807   0.9039   0
1196.644   0.7766   0.3983   0.9033   0
1196.704   0.7768   0.3978   0.9028   1
1196.764   0.6699   0.3897   0.9022   1
1196.823   0.8323   0.4033   0.9016   1
1196.883   0.5523   0.3830   0.9011   1
1196.943   0.8204   0.4049   0.9005   1
1197.003   0.5944   0.3849   0.8999   1
1197.063   0.8110   0.4018   0.8993   1
1197.123   1.0349   0.4189   0.8987   1
1197.182   0.5524   0.3808   0.8982   1
1197.242   0.8519   0.4059   0.8976   1
1197.302   0.3917   0.3644   0.8969   1
1197.362   0.5619   0.3785   0.8963   1
1197.422   0.6670   0.3873   0.8957   1
1197.482   0.8076   0.3976   0.8951   1
1197.541   0.8420   0.4005   0.8945   1
1197.601   0.7698   0.3936   0.8938   1
1197.661   0.6276   0.3820   0.8932   1
1197.721   0.9089   0.4034   0.8926   1
1197.781   0.6617   0.3867   0.8919   1
1197.840   0.7660   0.3935   0.8913   1
1197.900   0.4824   0.3698   0.8906   1
1197.960   0.8334   0.3972   0.8899   1
1198.020   0.6922   0.3867   0.8893   1
1198.080   0.6921   0.3861   0.8886   1
1198.140   0.9015   0.4033   0.8879   1
1198.199   0.5513   0.3747   0.8872   1
1198.259   0.6911   0.3865   0.8865   1
1198.319   0.6193   0.3809   0.8858   1
1198.379   0.7587   0.3907   0.8851   1
1198.439   0.5149   0.3711   0.8844   1
1198.499   0.6556   0.3820   0.8837   1
1198.558   0.9330   0.4037   0.8830   1
1198.618   0.6541   0.3812   0.8822   1
1198.678   0.7418   0.3894   0.8815   1
1198.738   0.6500   0.3841   0.8807   1
1198.798   0.6914   0.3897   0.8800   1
1198.857   0.6514   0.3846   0.8792   1
1198.917   0.8270   0.3977   0.8784   0
1198.977   0.2832   0.3523   0.8777   0
1199.037   0.6493   0.3836   0.8769   0
1199.097   0.4668   0.3677   0.8761   0
1199.156   0.4904   0.3688   0.8753   0
1199.216   0.5475   0.3717   0.8745   0
1199.276   0.6866   0.3826   0.8737   0
1199.336   0.3411   0.3537   0.8729   0
1199.396   0.3403   0.3543   0.8720   0
1199.456   0.2018   0.3406   0.8712   0
1199.515   0.2708   0.3471   0.8704   0
1199.575   0.0279   0.3235   0.8695   0
1199.635   0.1663   0.3366   0.8686   0
1199.695   0.4772   0.3643   0.8678   0
1199.755   0.2008   0.3401   0.8669   0
1199.815   0.4424   0.3607   0.8660   0
1199.874   0.3048   0.3496   0.8651   0
1199.934   0.3754   0.3556   0.8642   0
1199.994   0.4786   0.3641   0.8633   0
1200.054   0.4781   0.3638   0.8624   0
1200.114   0.4431   0.3610   0.8614   0
1200.173   0.3044   0.3470   0.8605   0
1200.233   0.1670   0.3355   0.8596   0
1200.293   0.2360   0.3416   0.8586   0
1200.353   0.3393   0.3513   0.8576   0
1200.413   0.2008   0.3376   0.8567   0
1200.473   0.0974   0.3281   0.8557   0
1200.532   0.2348   0.3410   0.8547   0
1200.592   0.0626   0.3244   0.8537   0
1200.652   0.0283   0.3207   0.8527   0
1200.712   0.0284   0.3206   0.8516   0
1200.772   0.1989   0.3371   0.8506   0
1200.831   0.0963   0.3272   0.8496   0
1200.891   0.0613   0.3236   0.8485   0
1200.951   0.1981   0.3367   0.8474   0
1201.011   0.1985   0.3363   0.8463   0
1201.071   0.1645   0.3332   0.8453   0
1201.131   0.1295   0.3297   0.8441   0
1201.190   0.0612   0.3229   0.8431   0
1201.250   0.0941   0.3261   0.8419   0
1201.310   0.1275   0.3292   0.8408   0
1201.370   0.1626   0.3320   0.8396   0
1201.430   0.1962   0.3355   0.8385   0
1201.490   0.1607   0.3320   0.8373   0
1201.549   0.0582   0.3219   0.8361   0
1201.609   0.1270   0.3281   0.8349   0
1201.669   0.0582   0.3216   0.8337   0
1201.729   0.1268   0.3281   0.8325   0
1201.789   0.0269   0.3185   0.8313   0
1201.848   0.0616   0.3227   0.8300   0
1201.908   0.0632   0.3232   0.8288   0
1201.968   -0.0090   0.3155   0.8275   0
1202.028   0.0605   0.3222   0.8262   0
1202.088   0.0611   0.3223   0.8249   0
1202.147   0.0646   0.3236   0.8236   0
1202.207   0.2547   0.3437   0.8223   0
1202.267   0.1740   0.3344   0.8209   0
1202.327   0.0246   0.3178   0.8195   0
1202.387   0.0930   0.3242   0.8182   0
1202.447   0.0239   0.3181   0.8168   0
1202.506   -0.0115   0.3140   0.8154   0
1202.566   -0.0117   0.3134   0.8140   0
1202.626   0.0225   0.3165   0.8125   0
1202.686   0.1236   0.3260   0.8111   0
1202.746   0.0221   0.3160   0.8096   0
1202.806   0.0905   0.3226   0.8081   0
1202.865   -0.0101   0.3124   0.8066   0
1202.925   0.0911   0.3224   0.8051   0
1202.985   0.0583   0.3191   0.8036   0
1203.045   -0.0084   0.3121   0.8020   0
1203.105   0.0914   0.3221   0.8004   0
1203.164   0.0920   0.3220   0.7989   0
1203.224   0.4283   0.3530   0.7973   0
1203.284   0.1273   0.3251   0.7956   0
1203.344   0.2300   0.3348   0.7940   0
1203.404   0.4995   0.3588   0.7923   0
1203.464   0.2984   0.3407   0.7906   0
1203.523   0.4001   0.3496   0.7890   0
1203.583   0.2656   0.3367   0.7872   0
1203.643   0.5680   0.3629   0.7855   0
1203.703   0.4001   0.3478   0.7837   0
1203.763   0.2992   0.3398   0.7819   0
1203.823   0.1983   0.3306   0.7801   0
1203.882   0.5657   0.3634   0.7783   0
1203.942   0.3309   0.3430   0.7765   0
1204.002   0.3637   0.3455   0.7746   0
1204.062   0.3977   0.3486   0.7727   0
1204.122   0.4649   0.3542   0.7708   0
1204.181   0.4313   0.3511   0.7689   0
1204.241   0.6651   0.3706   0.7669   0
1204.301   0.4640   0.3524   0.7649   0
1204.361   0.4967   0.3554   0.7629   0
1204.421   0.4289   0.3510   0.7609   0
1204.480   0.3950   0.3473   0.7589   0
1204.540   0.6282   0.3665   0.7568   0
1204.600   0.5268   0.3589   0.7547   0
1204.660   0.4926   0.3554   0.7526   0
1204.720   0.3253   0.3395   0.7504   0
1204.780   0.3921   0.3460   0.7482   0
1204.839   0.4915   0.3550   0.7460   0
1204.899   0.3592   0.3435   0.7438   0
1204.959   0.6926   0.3704   0.7415   0
1205.019   0.4933   0.3546   0.7392   0
1205.079   0.6595   0.3678   0.7369   0
1205.139   0.3915   0.3459   0.7345   0
1205.198   0.5916   0.3629   0.7322   0
1205.258   0.6075   0.3650   0.7298   0
1205.318   0.5856   0.3642   0.7273   0
1205.378   0.5176   0.3601   0.7249   0
1205.438   0.4428   0.3534   0.7224   0
1205.497   0.5075   0.3575   0.7199   0
1205.557   0.4767   0.3546   0.7173   0
1205.617   0.6921   0.3735   0.7147   0
1205.677   0.7501   0.3767   0.7121   0
1205.737   0.5047   0.3568   0.7094   0
1205.797   0.4260   0.3492   0.7067   0
1205.856   0.4898   0.3531   0.7040   0
1205.916   0.5891   0.3621   0.7012   0
1205.976   0.3568   0.3414   0.6984   0
1206.036   0.1575   0.3238   0.6956   0
1206.096   0.1577   0.3233   0.6927   0
1206.155   0.0912   0.3178   0.6898   0
1206.215   0.0589   0.3143   0.6868   0
1206.275   0.0605   0.3139   0.6838   0
1206.335   -0.0051   0.3075   0.6808   0
1206.395   0.0944   0.3174   0.6777   0
1206.455   -0.0049   0.3074   0.6746   0
1206.514   0.0272   0.3107   0.6715   0
1206.574   -0.0067   0.3073   0.6683   0
1206.634   0.0254   0.3106   0.6651   0
1206.694   -0.0079   0.3071   0.6618   0
1206.754   0.0261   0.3104   0.6584   0
1206.813   0.0254   0.3103   0.6551   0
1206.873   0.1244   0.3201   0.6517   0
1206.933   0.0236   0.3102   0.6482   0
1206.993   0.1888   0.3262   0.6447   0
1207.053   0.2555   0.3324   0.6412   0
1207.113   0.4008   0.3451   0.6376   0
1207.172   0.2710   0.3359   0.6340   0
1207.232   0.1658   0.3259   0.6303   0
1207.292   0.1654   0.3254   0.6265   0
1207.352   0.1294   0.3214   0.6227   0
1207.412   0.0602   0.3142   0.6188   0
1207.471   0.0614   0.3148   0.6150   0
1207.531   0.2665   0.3345   0.6110   0
1207.591   0.2991   0.3358   0.6070   0
1207.651   0.2262   0.3284   0.6030   0
1207.711   0.1905   0.3253   0.5988   0
1207.771   0.1563   0.3224   0.5946   0
1207.830   0.2559   0.3314   0.5905   0
1207.890   0.3211   0.3368   0.5862   0
1207.950   0.2565   0.3317   0.5818   0
1208.010   0.1235   0.3186   0.5774   0
1208.070   0.0227   0.3091   0.5730   0
1208.130   0.0214   0.3091   0.5684   0
1208.189   0.0211   0.3090   0.5639   0
1208.249   0.0213   0.3090   0.5592   0
1208.309   -0.0114   0.3057   0.5545   0
1208.369   -0.0114   0.3056   0.5497   0
1208.429   -0.0114   0.3056   0.5449   0
1208.488   0.0545   0.3121   0.5401   0
1208.548   0.0213   0.3088   0.5351   0
1208.608   -0.0122   0.3054   0.5301   0
1208.668   -0.0112   0.3054   0.5249   0
1208.728   -0.0091   0.3053   0.5198   0
1208.787   0.0241   0.3085   0.5146   0
1208.847   -0.0075   0.3052   0.5093   0
1208.907   0.0245   0.3085   0.5039   0
1208.967   0.2205   0.3270   0.4984   0
1209.027   0.1878   0.3244   0.4929   0
1209.087   0.2224   0.3270   0.4873   0
1209.146   0.2870   0.3329   0.4817   0
1209.206   0.4838   0.3502   0.4760   0
1209.266   0.2846   0.3333   0.4702   0
1209.326   0.5480   0.3552   0.4643   0
1209.386   0.4491   0.3476   0.4583   0
1209.446   0.5470   0.3556   0.4523   0
1209.505   0.8089   0.3747   0.4462   0
1209.565   0.5138   0.3529   0.4401   0
1209.625   0.3805   0.3411   0.4338   1
1209.685   0.5107   0.3517   0.4274   1
1209.745   0.5762   0.3573   0.4210   1
1209.804   0.3127   0.3355   0.4146   1
1209.864   0.6726   0.3651   0.4081   1
1209.924   0.5098   0.3523   0.4014   1
1209.984   0.4760   0.3488   0.3947   1
1210.044   0.5084   0.3518   0.3879   1
1210.104   0.3775   0.3407   0.3811   1
1210.163   0.4095   0.3424   0.3742   1
1210.223   0.4212   0.3449   0.3672   1
1210.283   0.6006   0.3607   0.3602   1
1210.343   0.3645   0.3425   0.3530   1
1210.403   0.5678   0.3586   0.3458   1
1210.463   0.1176   0.3183   0.3385   1
1210.522   0.4335   0.3478   0.3313   1
1210.582   0.3787   0.3449   0.3239   1
1210.642   0.4159   0.3478   0.3164   1
1210.702   0.2611   0.3325   0.3089   1
1210.762   0.8109   0.3790   0.3013   1
1210.821   0.3938   0.3451   0.2937   1
1210.881   0.6007   0.3594   0.2860   1
1210.941   0.4866   0.3502   0.2783   1
1211.001   0.2113   0.3255   0.2705   1
1211.061   0.2393   0.3272   0.2627   1
1211.120   0.3695   0.3382   0.2550   1
1211.180   0.2389   0.3273   0.2471   1
1211.240   0.3042   0.3327   0.2392   1
1211.300   0.4024   0.3408   0.2312   1
1211.360   0.4064   0.3412   0.2233   1
1211.420   0.3742   0.3383   0.2153   1
1211.479   0.2449   0.3270   0.2075   1
1211.539   0.3767   0.3386   0.1995   1
1211.599   0.3444   0.3354   0.1916   1
1211.659   0.2470   0.3271   0.1837   1
1211.719   0.4410   0.3439   0.1758   1
1211.779   0.2123   0.3236   0.1679   1
1211.838   0.3414   0.3349   0.1602   1
1211.898   0.3092   0.3326   0.1525   1
1211.958   0.2442   0.3263   0.1448   1
1212.018   0.2124   0.3235   0.1372   1
1212.078   0.2131   0.3235   0.1297   1
1212.137   0.2779   0.3290   0.1224   1
1212.197   0.1487   0.3173   0.1151   1
1212.257   0.3097   0.3317   0.1080   1
1212.317   0.1468   0.3171   0.1009   1
1212.377   0.1469   0.3170   0.0941   1
1212.437   0.1158   0.3138   0.0874   1
1212.496   0.1482   0.3165   0.0810   1
1212.556   0.2441   0.3256   0.0746   1
1212.616   0.1795   0.3195   0.0685   1
1212.676   0.0500   0.3072   0.0626   1
1212.736   0.0508   0.3073   0.0569   1
1212.795   0.2626   0.3027   0.0516   1
1212.855   -0.0148   0.3007   0.0464   1
1212.915   0.0502   0.3067   0.0415   1
1212.975   0.1486   0.3163   0.0369   1
1213.035   0.0508   0.3067   0.0325   1
1213.095   0.0504   0.3067   0.0285   1
1213.154   0.0827   0.3098   0.0248   1
1213.214   0.2102   0.3215   0.0213   1
1213.274   0.0143   0.3033   0.0182   1
1213.334   0.0773   0.3094   0.0153   1
1213.394   0.1080   0.3122   0.0128   1
1213.453   0.1078   0.3122   0.0106   1
1213.513   0.0425   0.3060   0.0086   1
1213.573   0.0078   0.3029   0.0069   1
1213.633   0.0086   0.3027   0.0054   1
1213.693   0.0441   0.3070   0.0042   1
1213.753   0.0124   0.3041   0.0032   1
1213.812   0.0143   0.3038   0.0024   1
1213.872   0.0139   0.3038   0.0017   1
1213.932   0.0462   0.3073   0.0012   0
1213.992   0.1116   0.3145   0.0008   0
1214.052   0.0746   0.3098   0.0006   0
1214.111   0.0709   0.3088   0.0004   0
1214.171   0.0031   0.3021   0.0002   0
1214.231   0.0695   0.3080   0.0001   0
1214.291   0.1028   0.3110   0.0001   0
1214.351   0.2915   0.3273   0.0001   0
1214.411   0.0566   0.3076   0.0000   0
1214.470   0.3043   0.3288   0.0000   0
1214.530   0.5138   0.3456   0.0000   0
1214.590   0.5195   0.3440   0.0000   0
1214.650   0.3772   0.3323   0.0000   0
1214.710   1.1326   0.3843   0.0000   0
1214.770   6.5153   0.6209   0.0000   0
1214.829   17.4433   0.9047   0.0000   0
1214.889   33.1051   1.1831   0.0000   0
1214.949   50.8410   1.4279   0.0000   0
1215.009   77.8268   1.7290   0.0000   0
1215.069   113.7661   2.0579   0.0000   0
1215.128   153.3073   2.3632   0.0000   0
1215.188   179.6080   2.5449   0.0000   0
1215.248   202.8627   2.6941   0.0000   0
1215.308   237.1577   2.8996   0.0000   0
1215.368   259.1332   3.0240   0.0000   0
1215.427   271.5714   3.0916   0.0000   0
1215.487   278.5308   3.1296   0.0000   0
1215.547   290.6882   3.2508   0.0000   0
1215.607   296.6748   3.3004   0.0000   0
1215.667   290.3634   3.2591   0.0000   0
1215.727   284.9456   3.2318   0.0000   0
1215.786   270.8632   3.1621   0.0000   0
1215.846   248.1180   3.0460   0.0000   0
1215.906   218.2431   2.8399   0.0000   0
1215.966   192.8447   2.6559   0.0000   0
1216.026   159.2684   2.3991   0.0000   0
1216.086   128.4761   2.1699   0.0000   0
1216.145   87.8941   1.8202   0.0000   0
1216.205   58.9178   1.5172   0.0000   0
1216.265   42.2330   1.3103   0.0000   0
1216.325   23.7319   1.0213   0.0000   0
1216.385   9.6235   0.7105   0.0000   0
1216.444   2.4620   0.4489   0.0000   0
1216.504   1.0845   0.3767   0.0000   0
1216.564   0.2716   0.3233   0.0000   0
1216.624   0.3454   0.3289   0.0000   0
1216.684   0.2367   0.3199   0.0000   0
1216.744   0.1780   0.3148   0.0000   0
1216.803   0.1490   0.3127   0.0000   0
1216.863   0.1829   0.3145   0.0000   0
1216.923   0.1541   0.3122   0.0000   0
1216.983   0.0297   0.3011   0.0000   0
1217.043   0.1311   0.3096   0.0000   0
1217.103   0.0708   0.3044   0.0000   0
1217.162   0.0410   0.3012   0.0000   0
1217.222   0.0426   0.3011   0.0000   0
1217.282   0.0758   0.3042   0.0000   0
1217.342   0.1714   0.3129   0.0000   0
1217.402   -0.0180   0.2948   0.0000   0
1217.461   0.1096   0.3069   0.0000   0
1217.521   0.0791   0.3040   0.0000   0
1217.581   0.0801   0.3038   0.0000   0
1217.641   0.0489   0.3007   0.0000   0
1217.701   0.0497   0.3008   0.0000   0
1217.760   -0.0139   0.2944   0.0000   1
1217.820   -0.0138   0.2943   0.0000   1
1217.880   -0.0140   0.2942   0.0000   1
1217.940   -0.0123   0.2941   0.0000   1
1218.000   0.0516   0.3003   0.0000   1
1218.060   0.0193   0.2971   0.0000   1
1218.119   0.0828   0.3029   0.0000   1
1218.179   -0.0109   0.2939   0.0000   1
1218.239   0.0209   0.2969   0.0000   1
1218.299   0.0225   0.2969   0.0000   1
1218.359   0.0552   0.3000   0.0000   1
1218.419   0.0560   0.2998   0.0000   1
1218.478   0.0221   0.2967   0.0000   1
1218.538   -0.0106   0.2935   0.0000   1
1218.598   0.0215   0.2966   0.0000   1
1218.658   -0.0098   0.2938   0.0000   1
1218.718   0.0914   0.3044   0.0000   1
1218.777   0.0250   0.2976   0.0000   1
1218.837   0.0235   0.2976   0.0000   1
1218.897   0.0556   0.3011   0.0000   1
1218.957   0.0576   0.3025   0.0000   1
1219.017   -0.0122   0.2947   0.0000   1
1219.077   0.0231   0.2981   0.0000   1
1219.136   -0.0129   0.2937   0.0000   1
1219.196   0.0196   0.2973   0.0000   1
1219.256   0.0197   0.2974   0.0000   1
1219.316   0.0185   0.2969   0.0000   1
1219.376   0.0150   0.2959   0.0000   1
1219.435   0.0154   0.2955   0.0001   1
1219.495   0.0488   0.2985   0.0001   1
1219.555   0.0179   0.2954   0.0001   1
1219.615   -0.0139   0.2922   0.0002   1
1219.675   0.0179   0.2953   0.0003   1
1219.735   0.0805   0.3014   0.0005   1
1219.794   0.0180   0.2952   0.0008   1
1219.854   -0.0112   0.2920   0.0011   1
1219.914   0.0531   0.2982   0.0015   1
1219.974   0.0224   0.2950   0.0020   1
1220.034   -0.0105   0.2918   0.0027   1
1220.094   0.0520   0.2981   0.0035   1
1220.153   -0.0102   0.2916   0.0045   1
1220.213   -0.0106   0.2916   0.0057   1
1220.273   0.0520   0.2978   0.0071   1
1220.333   0.0214   0.2946   0.0087   1
1220.393   0.0226   0.2945   0.0105   1
1220.452   0.0539   0.2976   0.0126   1
1220.512   0.0530   0.2975   0.0149   1
1220.572   0.0532   0.2975   0.0175   1
1220.632   -0.0094   0.2911   0.0204   1
1220.692   0.0221   0.2942   0.0235   1
1220.751   0.0854   0.3003   0.0269   1
1220.811   0.1489   0.3063   0.0305   1
1220.871   0.1180   0.3030   0.0345   1
1220.931   0.1488   0.3063   0.0387   1
1220.991   0.1796   0.3089   0.0431   1
1221.051   0.0851   0.3000   0.0478   1
1221.110   0.1479   0.3058   0.0527   1
1221.170   0.0846   0.3000   0.0579   1
1221.230   0.0851   0.2998   0.0633   1
1221.290   0.1479   0.3050   0.0689   1
1221.350   0.0213   0.2934   0.0748   1
1221.410   0.1464   0.3057   0.0808   1
1221.469   0.2729   0.3167   0.0869   1
1221.529   0.1792   0.3083   0.0932   1
1221.589   0.1472   0.3055   0.0998   1
1221.649   0.2086   0.3107   0.1064   1
1221.709   0.1766   0.3080   0.1133   1
1221.768   0.3643   0.3244   0.1201   1
1221.828   0.2083   0.3111   0.1271   1
1221.888   0.2709   0.3168   0.1343   1
1221.948   0.2720   0.3168   0.1415   1
1222.008   0.3038   0.3194   0.1488   1
1222.068   0.3098   0.3205   0.1562   1
1222.127   0.1546   0.3063   0.1636   1
1222.187   0.3573   0.3264   0.1711   1
1222.247   0.1583   0.3069   0.1786   1
1222.307   0.3190   0.3218   0.1862   1
1222.367   0.2231   0.3135   0.1938   1
1222.427   0.1239   0.3039   0.2015   1
1222.486   0.2158   0.3121   0.2090   1
1222.546   0.1798   0.3073   0.2167   1
1222.606   0.1488   0.3044   0.2243   1
1222.666   0.3689   0.3238   0.2320   1
1222.726   0.2122   0.3099   0.2396   1
1222.785   0.3991   0.3271   0.2471   1
1222.845   0.3668   0.3235   0.2547   1
1222.905   0.3031   0.3183   0.2623   1
1222.965   0.3653   0.3234   0.2699   1
1223.025   0.2406   0.3127   0.2774   1
1223.084   0.3004   0.3177   0.2847   1
1223.144   0.2383   0.3113   0.2922   1
1223.204   0.3626   0.3228   0.2996   1
1223.264   0.5188   0.3360   0.3069   1
1223.324   0.4260   0.3273   0.3142   1
1223.384   0.3945   0.3258   0.3214   1
1223.443   0.6135   0.3440   0.3285   1
1223.503   0.4893   0.3336   0.3356   1
1223.563   0.6129   0.3441   0.3427   1
1223.623   0.6737   0.3483   0.3497   1
1223.683   0.4871   0.3331   0.3566   1
1223.743   0.4856   0.3327   0.3635   1
1223.802   0.4859   0.3327   0.3702   1
1223.862   0.3933   0.3252   0.3769   1
1223.922   0.4637   0.3321   0.3836   1
1223.982   0.3774   0.3255   0.3902   1
1224.042   0.5157   0.3370   0.3968   1
1224.101   0.5158   0.3389   0.4031   1
1224.161   0.4116   0.3286   0.4096   1
1224.221   0.4152   0.3288   0.4159   1
1224.281   0.2856   0.3177   0.4222   1
1224.341   0.4749   0.3336   0.4283   1
1224.401   0.3994   0.3251   0.4345   1
1224.460   0.8305   0.3598   0.4404   1
1224.520   0.4571   0.3290   0.4464   1
1224.580   0.4567   0.3289   0.4523   1
1224.640   0.4569   0.3295   0.4582   1
1224.700   0.4270   0.3271   0.4639   1
1224.760   0.6764   0.3475   0.4696   1
1224.819   0.7070   0.3485   0.4752   1
1224.879   0.3659   0.3213   0.4808   1
1224.939   0.4279   0.3275   0.4863   1
1224.999   0.3038   0.3157   0.4917   1
1225.059   0.4578   0.3299   0.4970   1
1225.118   0.6126   0.3408   0.5023   1
1225.178   0.3943   0.3232   0.5075   1
1225.238   0.6724   0.3458   0.5127   1
1225.298   0.2389   0.3095   0.5177   1
1225.358   0.7027   0.3479   0.5228   1
1225.417   0.4558   0.3285   0.5277   1
1225.477   0.5775   0.3389   0.5326   1
1225.537   0.7955   0.3555   0.5374   1
1225.597   0.4556   0.3276   0.5422   1
1225.657   0.6711   0.3457   0.5469   1
1225.717   0.7012   0.3482   0.5516   1
1225.776   0.6065   0.3404   0.5561   1
1225.836   0.6066   0.3411   0.5606   1
1225.896   0.6691   0.3461   0.5651   1
1225.956   0.6378   0.3424   0.5695   1
1226.016   0.5160   0.3331   0.5739   1
1226.076   0.4551   0.3284   0.5782   1
1226.135   0.6091   0.3398   0.5824   1
1226.195   0.4235   0.3245   0.5866   1
1226.255   0.8571   0.3588   0.5907   1
1226.315   1.1049   0.3766   0.5948   1
1226.375   0.7328   0.3497   0.5989   1
1226.434   0.7005   0.3470   0.6028   1
1226.494   0.6396   0.3431   0.6067   1
1226.554   0.7626   0.3511   0.6106   1
1226.614   0.7016   0.3471   0.6144   1
1226.674   0.6711   0.3448   0.6182   1
1226.734   0.7931   0.3545   0.6219   1
1226.793   0.6380   0.3417   0.6255   1
1226.853   1.1037   0.3754   0.6292   1
1226.913   0.8561   0.3581   0.6328   1
1226.973   0.4540   0.3263   0.6363   1
1227.033   0.8290   0.3578   0.6398   1
1227.092   0.7247   0.3510   0.6432   1
1227.152   0.6998   0.3499   0.6466   1
1227.212   0.7686   0.3557   0.6499   1
1227.272   0.7793   0.3572   0.6533   1
1227.332   0.6964   0.3512   0.6565   1
1227.392   0.7759   0.3588   0.6598   1
1227.451   0.6770   0.3514   0.6629   1
1227.511   0.8132   0.3593   0.6661   1
1227.571   0.7677   0.3563   0.6692   1
1227.631   0.6029   0.3419   0.6722   1
1227.691   0.6703   0.3473   0.6753   1
1227.750   0.5605   0.3366   0.6782   0
1227.810   0.5454   0.3336   0.6812   0
1227.870   0.5764   0.3371   0.6841   0
1227.930   0.6682   0.3441   0.6870   0
1227.990   0.3599   0.3187   0.6898   0
1228.050   0.6362   0.3409   0.6926   0
1228.109   0.6053   0.3386   0.6954   0
1228.169   0.6394   0.3414   0.6981   0
1228.229   0.6996   0.3450   0.7008   0
1228.289   0.5128   0.3314   0.7035   0
1228.349   0.6670   0.3432   0.7061   0
1228.408   0.7912   0.3512   0.7087   0
1228.468   0.4519   0.3251   0.7113   0
1228.528   0.4520   0.3254   0.7138   0
1228.588   0.5737   0.3359   0.7163   0
1228.648   0.6627   0.3429   0.7188   0
1228.708   0.4175   0.3215   0.7213   0
1228.767   0.9420   0.3644   0.7236   0
1228.827   0.7271   0.3466   0.7260   0
1228.887   0.6031   0.3379   0.7284   0
1228.947   0.5407   0.3327   0.7307   0
1229.007   0.6948   0.3445   0.7330   0
1229.067   0.3584   0.3168   0.7353   0
1229.126   0.8512   0.3571   0.7375   0
1229.186   0.6358   0.3405   0.7397   0
1229.246   0.7601   0.3488   0.7419   0
1229.306   0.7296   0.3480   0.7441   0
1229.366   0.6374   0.3389   0.7463   0
1229.425   0.4832   0.3275   0.7483   0
1229.485   0.5125   0.3297   0.7504   0
1229.545   0.8811   0.3580   0.7525   0
1229.605   0.6651   0.3421   0.7545   0
1229.665   0.2664   0.3085   0.7566   0
1229.724   0.6046   0.3378   0.7585   0
1229.784   0.9120   0.3603   0.7605   0
1229.844   0.6973   0.3446   0.7625   0
1229.904   0.4509   0.3241   0.7644   0
1229.964   0.4824   0.3274   0.7663   0
1230.024   0.5449   0.3321   0.7682   0
1230.083   0.7920   0.3503   0.7700   0
1230.143   0.2387   0.3057   0.7719   0
1230.203   0.6988   0.3439   0.7737   0
1230.263   0.5440   0.3320   0.7755   0
1230.323   0.6358   0.3390   0.7773   0
1230.383   0.6031   0.3115   0.7790   0
1230.442   0.6885   0.3445   0.7807   0
1230.502   0.6687   0.3443   0.7824   0
1230.562   0.7743   0.3553   0.7841   0
1230.622   0.4803   0.3294   0.7858   0
1230.682   0.7035   0.3478   0.7875   0
1230.741   0.6077   0.3405   0.7891   0
1230.801   0.4157   0.3241   0.7907   0
1230.861   0.4436   0.3242   0.7923   0
1230.921   0.4603   0.3246   0.7939   0
1230.981   0.5771   0.3334   0.7955   0
1231.041   0.4842   0.3262   0.7971   0
1231.100   0.5452   0.3306   0.7986   0
1231.160   0.6384   0.3384   0.8001   0
1231.220   0.3020   0.3110   0.8016   0
1231.280   0.6986   0.3438   0.8031   0
1231.340   0.5749   0.3337   0.8046   0
1231.400   0.6052   0.3364   0.8060   0
1231.459   0.7259   0.3449   0.8074   0
1231.519   0.5443   0.3304   0.8089   0
1231.579   0.7284   0.3458   0.8103   0
1231.639   0.5739   0.3329   0.8117   0
1231.699   0.6045   0.3355   0.8130   0
1231.758   0.5104   0.3279   0.8144   0
1231.818   0.6327   0.3383   0.8157   0
1231.878   0.6325   0.3384   0.8171   0
1231.938   0.6018   0.3351   0.8184   0
1231.998   0.6025   0.3363   0.8197   0
1232.057   0.2648   0.3070   0.8210   0
1232.117   0.4483   0.3221   0.8223   0
1232.177   0.4785   0.3246   0.8235   0
1232.237   0.5138   0.3283   0.8248   0
1232.297   0.3681   0.3172   0.8260   0
1232.357   0.3424   0.3161   0.8273   0
1232.416   0.6075   0.3383   0.8285   0
1232.476   0.2810   0.3109   0.8297   0
1232.536   0.4066   0.3212   0.8308   0
1232.596   0.2155   0.3040   0.8320   0
1232.656   0.5060   0.3290   0.8332   0
1232.716   0.3417   0.3156   0.8344   0
1232.775   0.2697   0.3076   0.8355   0
1232.835   0.5434   0.3303   0.8366   0
1232.895   0.7279   0.3440   0.8377   0
1232.955   0.3597   0.3144   0.8388   0
1233.015   0.4191   0.3192   0.8399   0
1233.074   0.3887   0.3165   0.8410   0
1233.134   0.3590   0.3134   0.8421   0
1233.194   0.4519   0.3216   0.8432   0
1233.254   0.2996   0.3096   0.8442   0
1233.314   0.4516   0.3217   0.8453   0
1233.374   0.4519   0.3227   0.8463   0
1233.433   0.3908   0.3168   0.8473   0
1233.493   0.4822   0.3240   0.8483   0
1233.553   0.6652   0.3386   0.8493   0
1233.613   0.4200   0.3200   0.8503   0
1233.673   0.6041   0.3332   0.8513   0
1233.732   0.4205   0.3195   0.8523   0
1233.792   0.4816   0.3246   0.8532   0
1233.852   0.5133   0.3259   0.8542   0
1233.912   0.3297   0.3102   0.8551   0
1233.972   0.7299   0.3450   0.8561   0
1234.032   0.2386   0.3022   0.8570   0
1234.091   0.3295   0.3108   0.8579   0
1234.151   0.4202   0.3194   0.8588   0
1234.211   0.4207   0.3190   0.8597   0
1234.271   0.3292   0.3107   0.8606   0
1234.331   0.5443   0.3289   0.8615   0
1234.391   0.3919   0.3167   0.8624   0
1234.450   0.3610   0.3146   0.8633   0
1234.510   0.4535   0.3220   0.8641   0
1234.570   0.3320   0.3110   0.8650   0
1234.630   0.3926   0.3169   0.8658   0
1234.690   0.4535   0.3216   0.8667   0
1234.749   0.7295   0.3432   0.8675   0
1234.809   0.6069   0.3340   0.8683   0
1234.869   0.4236   0.3186   0.8691   0
1234.929   0.4836   0.3237   0.8699   0
1234.989   0.3918   0.3146   0.8707   0
1235.048   0.5156   0.3273   0.8715   0
1235.108   0.3942   0.3160   0.8723   0
1235.168   0.3331   0.3097   0.8731   0
1235.228   0.2422   0.3027   0.8739   0
1235.288   0.2729   0.3052   0.8746   0
1235.348   0.3050   0.3083   0.8754   0
1235.407   0.4394   0.3214   0.8761   0
1235.467   0.4754   0.3250   0.8769   0
1235.527   0.4156   0.3206   0.8776   0
1235.587   0.3182   0.3114   0.8783   0
1235.647   0.4452   0.3223   0.8791   0
1235.707   0.5072   0.3282   0.8798   0
1235.766   0.4981   0.3289   0.8805   0
1235.826   0.3366   0.3146   0.8812   0
1235.886   0.2601   0.3075   0.8819   0
1235.946   0.3453   0.3131   0.8826   0
1236.006   0.4412   0.3222   0.8833   0
1236.065   0.2149   0.3006   0.8840   0
1236.125   0.3368   0.3102   0.8846   0
1236.185   0.2984   0.3067   0.8853   0
1236.245   0.6041   0.3325   0.8860   0
1236.305   0.3572   0.3113   0.8866   0
1236.365   0.3225   0.3089   0.8873   0
1236.424   0.3224   0.3091   0.8879   0
1236.484   0.2007   0.2978   0.8886   0
1236.544   0.4147   0.3171   0.8892   0
1236.604   0.5373   0.3275   0.8898   0
1236.664   0.2632   0.3033   0.8905   0
1236.724   0.2930   0.3061   0.8911   0
1236.783   0.3870   0.3136   0.8917   0
1236.843   0.4791   0.3229   0.8923   0
1236.903   0.5086   0.3242   0.8929   0
1236.963   0.6326   0.3346   0.8935   0
1237.023   0.4183   0.3172   0.8941   0
1237.082   0.4192   0.3174   0.8947   0
1237.142   0.3573   0.3111   0.8953   0
1237.202   0.4792   0.3227   0.8959   0
1237.262   0.4183   0.3163   0.8964   0
1237.322   0.4509   0.3201   0.8970   0
1237.381   0.3914   0.3136   0.8976   0
1237.441   0.2073   0.2975   0.8981   0
1237.501   0.2380   0.2999   0.8987   0
1237.561   0.3913   0.3135   0.8992   0
1237.621   0.5138   0.3242   0.8998   0
1237.681   0.5140   0.3242   0.9003   0
1237.740   0.3623   0.3112   0.9009   0
1237.800   0.3005   0.3058   0.9014   0
1237.860   0.3609   0.3107   0.9019   0
1237.920   0.2703   0.3034   0.9025   0
1237.980   0.4839   0.3220   0.9030   0
1238.040   0.4534   0.3180   0.9035   0
1238.099   0.4235   0.3162   0.9040   0
1238.159   0.3612   0.3111   0.9045   0
1238.219   0.3627   0.3112   0.9050   0
1238.279   0.2411   0.3003   0.9055   0
1238.339   0.3635   0.3113   0.9060   0
1238.398   0.3023   0.3049   0.9065   0
1238.458   0.4851   0.3219   0.9070   0
1238.518   0.4227   0.3157   0.9075   0
1238.578   0.2684   0.3025   0.9080   0
1238.638   0.4203   0.3162   0.9085   0
1238.698   0.2678   0.3021   0.9089   0
1238.757   0.2988   0.3045   0.9094   0
1238.817   0.2366   0.2994   0.9099   0
1238.877   0.2995   0.3054   0.9103   0
1238.937   0.4087   0.3177   0.9108   0
1238.997   0.3815   0.3153   0.9112   0
1239.056   0.3775   0.3146   0.9117   0
1239.116   0.3109   0.3073   0.9121   0
1239.176   0.4400   0.3193   0.9126   0
1239.236   0.2150   0.2986   0.9130   0
1239.296   0.3670   0.3110   0.9135   0
1239.356   0.5732   0.3286   0.9139   0
1239.415   0.3277   0.3067   0.9143   0
1239.475   0.3269   0.3071   0.9148   0
1239.535   0.2982   0.3046   0.9152   0
1239.595   0.4514   0.3186   0.9156   0
1239.655   0.2081   0.2959   0.9160   0
1239.714   0.4217   0.3156   0.9165   0
1239.774   0.4224   0.3146   0.9169   0
1239.834   0.2700   0.3013   0.9173   0
1239.894   0.3310   0.3070   0.9177   0
1239.954   0.5142   0.3228   0.9181   0
1240.014   0.3313   0.3069   0.9185   0
1240.073   0.2095   0.2957   0.9189   0
1240.133   0.1791   0.2923   0.9193   0
1240.193   0.2710   0.3014   0.9197   0
1240.253   0.6977   0.3368   0.9201   0
1240.313   0.3304   0.3070   0.9205   0
1240.372   0.3906   0.3122   0.9208   0
1240.432   0.3917   0.3111   0.9212   0
1240.492   0.3303   0.3065   0.9216   0
1240.552   0.1463   0.2895   0.9220   0
1240.612   0.2363   0.2975   0.9224   0
1240.672   0.2362   0.2982   0.9227   0
1240.731   0.2064   0.2952   0.9231   0
1240.791   0.6647   0.3373   0.9235   0
1240.851   0.4130   0.3172   0.9238   0
1240.911   0.5357   0.3270   0.9242   0
1240.971   0.5934   0.3303   0.9245   0
1241.031   0.6605   0.3371   0.9249   0
1241.090   0.3669   0.3108   0.9253   0
1241.150   0.3300   0.3069   0.9256   0
1241.210   0.4755   0.3181   0.9260   0
1241.270   0.4761   0.3186   0.9263   0
1241.330   0.4476   0.3164   0.9266   0
1241.389   0.6918   0.3364   0.9270   0
1241.449   0.5082   0.3207   0.9273   0
1241.509   0.6908   0.3350   0.9277   0
1241.569   0.5701   0.3258   0.9280   0
1241.629   0.5103   0.3211   0.9283   0
1241.688   0.6018   0.3280   0.9286   0
1241.748   0.6620   0.3317   0.9290   0
1241.808   0.5703   0.3253   0.9293   0
1241.868   0.6940   0.3357   0.9296   0
1241.928   0.6924   0.3357   0.9299   0
1241.988   0.8750   0.3492   0.9303   0
1242.047   0.6014   0.3286   0.9306   0
1242.107   0.4503   0.3163   0.9309   0
1242.167   0.4502   0.3159   0.9312   0
1242.227   0.6932   0.3344   0.9315   0
1242.287   0.5416   0.3233   0.9318   0
1242.347   0.5108   0.3211   0.9321   0
1242.406   0.5400   0.3234   0.9324   0
1242.466   0.8143   0.3445   0.9327   0
1242.526   0.6030   0.3275   0.9330   0
1242.586   0.6633   0.3333   0.9333   0
1242.646   0.5417   0.3234   0.9336   0
1242.705   0.6914   0.3358   0.9339   0
1242.765   0.8128   0.3441   0.9342   0
1242.825   0.7823   0.3417   0.9345   0
1242.885   0.7216   0.3375   0.9348   1
1242.945   1.0254   0.3594   0.9351   1
1243.005   0.6611   0.3319   0.9353   1
1243.064   0.5090   0.3187   0.9356   1
1243.124   0.4783   0.3170   0.9359   1
1243.184   0.9916   0.3576   0.9362   1
1243.244   1.0819   0.3628   0.9365   1
1243.304   0.9310   0.3525   0.9367   1
1243.364   0.8105   0.3436   0.9370   1
1243.423   0.5998   0.3273   0.9373   1
1243.483   1.0237   0.3595   0.9375   1
1243.543   0.9347   0.3528   0.9378   1
1243.603   0.8141   0.3435   0.9381   1
1243.663   0.9645   0.3546   0.9383   1
1243.722   0.8415   0.3454   0.9386   1
1243.782   0.8115   0.3428   0.9389   1
1243.842   0.8717   0.3474   0.9391   1
1243.902   1.0120   0.3618   0.9394   1
1243.962   1.2097   0.3756   0.9396   1
1244.021   0.9495   0.3565   0.9399   1
1244.081   0.6917   0.3368   0.9401   1
1244.141   1.1454   0.3746   0.9404   1
1244.201   0.8561   0.3531   0.9406   1
1244.261   1.1399   0.3717   0.9409   1
1244.321   0.9385   0.3539   0.9411   1
1244.380   0.9444   0.3553   0.9414   1
1244.440   0.7247   0.3387   0.9416   1
1244.500   0.8984   0.3513   0.9419   1
1244.560   0.6301   0.3290   0.9421   1
1244.620   1.0433   0.3580   0.9423   1
1244.680   0.7738   0.3395   0.9426   1
1244.739   0.8940   0.3471   0.9428   1
1244.799   0.7438   0.3358   0.9431   1
1244.859   0.9860   0.3543   0.9433   1
1244.919   0.8962   0.3460   0.9435   1
1244.979   1.0752   0.3606   0.9437   1
1245.038   0.8054   0.3413   0.9440   1
1245.098   0.6541   0.3293   0.9442   1
1245.158   0.7744   0.3391   0.9444   1
1245.218   1.0458   0.3583   0.9447   1
1245.278   0.9866   0.3544   0.9449   1
1245.338   1.3161   0.3770   0.9451   1
1245.397   0.9544   0.3513   0.9453   1
1245.457   0.9855   0.3536   0.9455   1
1245.517   0.9256   0.3492   0.9458   1
1245.577   1.0420   0.3583   0.9460   1
1245.637   1.4295   0.3823   0.9462   1
1245.696   1.2486   0.3695   0.9464   1
1245.756   1.1580   0.3652   0.9466   1
1245.816   1.1883   0.3670   0.9468   1
1245.876   1.0369   0.3567   0.9470   1
1245.936   1.1287   0.3613   0.9472   1
1245.996   1.3973   0.3802   0.9474   1
1246.055   1.4264   0.3812   0.9477   1
1246.115   1.2480   0.3708   0.9479   1
1246.175   0.9477   0.3515   0.9481   1
1246.235   1.2458   0.3706   0.9483   1
1246.295   1.2168   0.3680   0.9485   1
1246.354   1.3363   0.3757   0.9487   1
1246.414   0.8281   0.3402   0.9489   1
1246.474   1.2162   0.3672   0.9491   1
1246.534   1.2742   0.3713   0.9493   1
1246.594   1.1844   0.3647   0.9495   1
1246.654   1.1262   0.3627   0.9497   1
1246.713   0.9773   0.3522   0.9498   1
1246.773   1.6045   0.3935   0.9500   1
1246.833   1.3349   0.3765   0.9502   1
1246.893   0.8550   0.3430   0.9504   1
1246.953   1.3623   0.3779   0.9506   1
1247.012   1.2727   0.3710   0.9508   1
1247.072   1.3011   0.3725   0.9510   1
1247.132   1.6304   0.3925   0.9512   1
1247.192   1.2749   0.3713   0.9513   1
1247.252   0.8712   0.3446   0.9515   1
1247.312   1.2992   0.3774   0.9517   1
1247.371   1.1867   0.3698   0.9519   1
1247.431   0.8650   0.3464   0.9521   1
1247.491   1.1413   0.3645   0.9523   1
1247.551   1.3776   0.3830   0.9524   1
1247.611   1.0287   0.3587   0.9526   1
1247.671   1.2845   0.3755   0.9528   1
1247.730   0.9990   0.3528   0.9530   1
1247.790   1.0873   0.3582   0.9531   1
1247.850   1.0891   0.3586   0.9533   1
1247.910   0.9423   0.3482   0.9535   1
1247.970   1.1114   0.3338   0.9537   1
1248.029   0.9101   0.3444   0.9538   1
1248.089   1.0910   0.3583   0.9540   1
1248.149   1.0018   0.3514   0.9542   1
1248.209   0.8222   0.3384   0.9543   1
1248.269   0.7927   0.3370   0.9545   1
1248.328   1.0317   0.3540   0.9547   1
1248.388   1.0915   0.3567   0.9548   1
1248.448   0.9732   0.3493   0.9550   1
1248.508   1.0033   0.3505   0.9552   1
1248.568   0.8258   0.3381   0.9553   1
1248.628   1.0653   0.3554   0.9555   1
1248.688   0.7676   0.3346   0.9556   1
1248.747   0.8273   0.3383   0.9558   1
1248.807   0.6466   0.3245   0.9560   1
1248.867   0.9707   0.3494   0.9561   1
1248.927   0.8513   0.3394   0.9563   1
1248.987   0.8522   0.3399   0.9564   1
1249.046   0.8495   0.3394   0.9566   1
1249.106   0.7541   0.3354   0.9567   1
1249.166   0.6753   0.3289   0.9569   1
1249.226   0.8068   0.3404   0.9570   1
1249.286   0.7374   0.3353   0.9572   1
1249.345   0.7687   0.3368   0.9573   1
1249.405   0.5560   0.3202   0.9575   1
1249.465   0.8685   0.3460   0.9576   1
1249.525   0.9974   0.3523   0.9578   1
1249.585   0.7907   0.3339   0.9579   1
1249.645   0.6412   0.3238   0.9581   1
1249.704   0.9940   0.3485   0.9582   1
1249.764   0.5517   0.3147   0.9584   1
1249.824   0.9399   0.3458   0.9585   1
1249.884   0.6762   0.3252   0.9587   1
1249.944   0.5580   0.3171   0.9588   1
1250.004   0.9129   0.3434   0.9590   1
1250.063   0.7956   0.3351   0.9591   1
1250.123   0.6165   0.3208   0.9592   1
1250.183   0.7344   0.3298   0.9594   1
1250.243   0.9697   0.3473   0.9595   1
1250.303   0.6147   0.3203   0.9597   1
1250.362   0.9691   0.3462   0.9598   1
1250.422   0.8216   0.3358   0.9599   1
1250.482   0.5248   0.3130   0.9601   1
1250.542   0.5252   0.3133   0.9602   1
1250.602   0.8198   0.3353   0.9603   1
1250.661   0.8497   0.3374   0.9605   1
1250.721   0.7613   0.3301   0.9606   1
1250.781   0.8780   0.3388   0.9607   1
1250.841   1.0260   0.3493   0.9609   1
1250.901   1.0563   0.3523   0.9610   1
1250.961   0.7024   0.3257   0.9611   1
1251.020   1.0560   0.3520   0.9613   1
1251.080   0.8210   0.3360   0.9614   1
1251.140   1.0863   0.3540   0.9615   1
1251.200   1.0569   0.3521   0.9617   1
1251.260   0.9063   0.3416   0.9618   1
1251.320   1.2291   0.3630   0.9619   1
1251.379   0.9633   0.3444   0.9620   1
1251.439   1.0222   0.3502   0.9622   1
1251.499   1.4045   0.3753   0.9623   1
1251.559   1.1100   0.3559   0.9624   1
1251.619   0.9332   0.3437   0.9625   1
1251.678   0.9332   0.3436   0.9627   1
1251.738   1.1124   0.3562   0.9628   1
1251.798   0.7578   0.3305   0.9629   1
1251.858   0.6980   0.3257   0.9630   1
1251.918   0.9320   0.3441   0.9631   1
1251.978   0.8144   0.3344   0.9633   1
1252.037   1.1394   0.3578   0.9634   1
1252.097   0.9630   0.3455   0.9635   1
1252.157   0.6684   0.3223   0.9636   1
1252.217   0.9172   0.3430   0.9637   1
1252.277   0.9154   0.3454   0.9639   1
1252.336   0.8688   0.3431   0.9640   1
1252.396   1.1140   0.3615   0.9641   1
1252.456   0.4588   0.3087   0.9642   1
1252.516   0.5447   0.3190   0.9643   1
1252.576   0.8152   0.3424   0.9644   1
1252.636   0.6689   0.3282   0.9646   1
1252.695   0.7351   0.3309   0.9647   1
1252.755   0.7632   0.3348   0.9648   1
1252.815   0.3323   0.2989   0.9649   1
1252.875   0.5482   0.3166   0.9650   1
1252.935   0.4420   0.3059   0.9651   1
1252.995   0.7288   0.3279   0.9652   1
1253.054   0.6398   0.3223   0.9653   1
1253.114   0.7305   0.3279   0.9654   1
1253.174   0.5525   0.3146   0.9656   1
1253.234   0.6423   0.3222   0.9657   1
1253.294   1.0267   0.3493   0.9658   1
1253.353   0.7014   0.3265   0.9659   1
1253.413   0.6432   0.3211   0.9660   1
1253.473   0.9406   0.3424   0.9661   1
1253.533   0.7634   0.3302   0.9662   1
1253.593   0.4392   0.3058   0.9663   1
1253.652   0.9144   0.3424   0.9664   1
1253.712   0.7962   0.3341   0.9665   1
1253.772   0.3816   0.3003   0.9666   1
1253.832   0.5900   0.3182   0.9667   1
1253.892   0.3821   0.2999   0.9668   1
1253.952   0.7668   0.3322   0.9669   1
1254.011   0.7357   0.3292   0.9670   1
1254.071   0.8844   0.3415   0.9671   1
1254.131   0.7349   0.3298   0.9672   1
1254.191   0.6469   0.3212   0.9673   1
1254.251   0.7058   0.3275   0.9674   1
1254.311   0.7943   0.3332   0.9675   1
1254.370   0.9727   0.3467   0.9676   1
1254.430   0.7948   0.3347   0.9677   1
1254.490   0.6734   0.3255   0.9678   1
1254.550   1.0296   0.3503   0.9679   1
1254.610   0.4934   0.3101   0.9680   1
1254.669   1.1477   0.3595   0.9681   1
1254.729   0.9398   0.3442   0.9682   1
1254.789   0.7015   0.3257   0.9683   1
1254.849   1.2093   0.3640   0.9684   1
1254.909   0.5236   0.3134   0.9685   1
1254.969   0.9128   0.3425   0.9686   1
1255.028   0.9144   0.3410   0.9687   1
1255.088   0.4980   0.3105   0.9688   1
1255.148   0.7070   0.3274   0.9689   1
1255.208   0.6753   0.3235   0.9690   1
1255.268   0.9744   0.3477   0.9691   1
1255.328   0.6477   0.3221   0.9692   1
1255.387   0.6177   0.3206   0.9693   1
1255.447   0.6485   0.3224   0.9693   1
1255.507   0.7998   0.3348   0.9694   1
1255.567   0.5608   0.3166   0.9695   1
1255.627   0.8040   0.3346   0.9696   1
1255.686   0.6473   0.3254   0.9697   1
1255.746   0.9043   0.3459   0.9698   1
1255.806   0.6535   0.3251   0.9699   1
1255.866   0.6225   0.3230   0.9700   1
1255.926   0.4329   0.3079   0.9701   1
1255.985   0.4674   0.3094   0.9701   1
1256.045   0.2443   0.2898   0.9702   1
1256.105   0.3294   0.2970   0.9703   1
1256.165   0.2032   0.2846   0.9704   1
1256.225   0.2341   0.2876   0.9705   1
1256.285   0.6539   0.3237   0.9706   1
1256.344   0.7128   0.3272   0.9707   1
1256.404   0.6227   0.3202   0.9708   1
1256.464   0.7117   0.3284   0.9708   1
1256.524   0.6215   0.3211   0.9709   1
1256.584   0.6824   0.3252   0.9710   1
1256.644   0.6826   0.3253   0.9711   1
1256.703   0.8622   0.3393   0.9712   1
1256.763   0.6220   0.3203   0.9713   1
1256.823   1.1307   0.3589   0.9713   1
1256.883   0.9821   0.3471   0.9714   1
1256.943   0.8904   0.3415   0.9715   1
1257.002   1.0108   0.3501   0.9716   1
1257.062   0.6201   0.3210   0.9717   1
1257.122   0.9197   0.3417   0.9717   1
1257.182   0.9790   0.3477   0.9718   1
1257.242   0.4972   0.3098   0.9719   1
1257.302   0.9180   0.3440   0.9720   1
1257.361   0.9474   0.3464   0.9721   1
1257.421   0.8869   0.3396   0.9721   1
1257.481   0.8642   0.3391   0.9722   1
1257.541   0.8954   0.3440   0.9723   1
1257.601   0.6514   0.3244   0.9724   1
1257.661   0.7751   0.3361   0.9725   1
1257.720   0.5264   0.3163   0.9725   1
1257.780   0.6810   0.3295   0.9726   1
1257.840   0.8469   0.3419   0.9727   1
1257.900   0.9600   0.3500   0.9728   1
1257.960   0.8751   0.3411   0.9728   1
1258.019   0.8029   0.3351   0.9729   1
1258.079   0.8630   0.3387   0.9730   1
1258.139   0.8923   0.3414   0.9731   1
1258.199   0.8622   0.3396   0.9731   1
1258.259   0.7122   0.3275   0.9732   1
1258.318   1.0159   0.3499   0.9733   1
1258.378   0.7440   0.3305   0.9734   1
1258.438   0.9839   0.3485   0.9734   1
1258.498   0.8330   0.3366   0.9735   1
1258.558   0.7432   0.3300   0.9736   1
1258.618   0.8336   0.3379   0.9737   1
1258.677   0.7136   0.3270   0.9737   1
1258.737   0.7440   0.3292   0.9738   1
1258.797   0.7754   0.3319   0.9739   1
1258.857   0.5963   0.3189   0.9739   1
1258.917   0.8660   0.3384   0.9740   1
1258.977   0.6855   0.3253   0.9741   1
1259.036   0.8045   0.3344   0.9742   1
1259.096   1.0741   0.3544   0.9742   1
1259.156   0.5949   0.3168   0.9743   1
1259.216   0.8064   0.3358   0.9744   1
1259.276   0.6262   0.3212   0.9744   1
1259.335   0.5362   0.3135   0.9745   1
1259.395   0.6575   0.3232   0.9746   1
1259.455   0.3270   0.2945   0.9746   1
1259.515   0.3565   0.2972   0.9747   1
1259.575   0.5660   0.3154   0.9748   1
1259.635   0.5649   0.3150   0.9748   1
1259.694   0.4444   0.3048   0.9749   1
1259.754   0.6246   0.3203   0.9750   1
1259.814   0.5042   0.3100   0.9750   1
1259.874   0.7743   0.3312   0.9751   1
1259.934   0.5354   0.3136   0.9752   1
1259.993   0.5962   0.3171   0.9752   1
1260.053   0.5678   0.3152   0.9753   1
1260.113   0.3574   0.2972   0.9754   1
1260.173   0.2976   0.2913   0.9754   1
1260.233   0.0272   0.2648   0.9755   1
1260.293   0.2371   0.2863   0.9756   1
1260.352   0.0557   0.2678   0.9756   1
1260.412   0.0555   0.2678   0.9757   1
1260.472   -0.0051   0.2614   0.9758   1
1260.532   0.0551   0.2677   0.9758   1
1260.592   0.0858   0.2709   0.9759   1
1260.651   0.1195   0.2752   0.9759   1
1260.711   0.0886   0.2724   0.9760   1
1260.771   0.1500   0.2785   0.9761   1
1260.831   0.1818   0.2820   0.9761   1
1260.891   0.1189   0.2751   0.9762   1
1260.951   0.2808   0.2918   0.9763   1
1261.010   0.4607   0.3105   0.9763   1
1261.070   0.6474   0.3259   0.9764   1
1261.130   0.4690   0.3088   0.9764   1
1261.190   0.4974   0.3111   0.9765   1
1261.250   0.3733   0.3012   0.9766   1
1261.309   0.3362   0.2963   0.9766   1
1261.369   0.1168   0.2741   0.9767   1
1261.429   0.2019   0.2815   0.9767   1
1261.489   0.2323   0.2844   0.9768   1
1261.549   0.3525   0.2952   0.9769   1
1261.609   0.2914   0.2901   0.9769   1
1261.668   0.3227   0.2925   0.9770   1
1261.728   0.1736   0.2790   0.9770   1
1261.788   0.2040   0.2808   0.9771   1
1261.848   0.2326   0.2844   0.9772   1
1261.908   0.2314   0.2841   0.9772   1
1261.968   0.0811   0.2696   0.9773   1
1262.027   0.0508   0.2665   0.9773   1
1262.087   0.0218   0.2633   0.9774   1
1262.147   0.0520   0.2664   0.9774   1
1262.207   0.0223   0.2632   0.9775   1
1262.267   0.0217   0.2631   0.9776   1
1262.326   0.0813   0.2693   0.9776   1
1262.386   -0.0079   0.2599   0.9777   1
1262.446   0.0221   0.2630   0.9777   1
1262.506   -0.0079   0.2598   0.9778   1
1262.566   -0.0088   0.2598   0.9778   1
1262.625   -0.0081   0.2597   0.9779   1
1262.685   -0.0080   0.2597   0.9779   1
1262.745   -0.0080   0.2596   0.9780   1
1262.805   0.0819   0.2689   0.9781   1
1262.865   0.0523   0.2658   0.9781   1
1262.925   -0.0068   0.2595   0.9782   1
1262.984   0.0829   0.2684   0.9782   1
1263.044   0.2607   0.2859   0.9783   1
1263.104   0.2906   0.2882   0.9783   1
1263.164   0.4389   0.3009   0.9784   1
1263.224   0.7353   0.3248   0.9784   1
1263.284   0.6476   0.3194   0.9785   1
1263.343   0.7651   0.3285   0.9785   1
1263.403   0.5256   0.3095   0.9786   1
1263.463   0.7327   0.3257   0.9786   1
1263.523   0.5555   0.3111   0.9787   1
1263.583   0.8810   0.3373   0.9788   1
1263.642   0.8800   0.3369   0.9788   1
1263.702   0.9114   0.3394   0.9789   1
1263.762   0.7620   0.3287   0.9789   1
1263.822   0.8800   0.3350   0.9790   1
1263.882   0.9691   0.3423   0.9790   1
1263.942   0.9979   0.3440   0.9791   1
1264.001   1.0550   0.3496   0.9791   1
1264.061   0.7875   0.3294   0.9792   1
1264.121   1.2415   0.3620   0.9792   1
1264.181   0.8863   0.3404   0.9793   1
1264.241   0.8587   0.3380   0.9793   1
1264.301   1.1098   0.3562   0.9794   1
1264.360   0.8348   0.3373   0.9794   1
1264.420   0.8319   0.3354   0.9795   1
1264.480   1.0370   0.3497   0.9795   1
1264.540   0.8341   0.3344   0.9796   1
1264.600   0.7271   0.3244   0.9796   1
1264.659   0.9941   0.3437   0.9797   1
1264.719   0.5794   0.3118   0.9797   1
1264.779   0.8447   0.3328   0.9798   1
1264.839   0.9327   0.3392   0.9798   1
1264.899   0.9635   0.3421   0.9799   1
1264.958   1.0529   0.3468   0.9799   1
1265.018   0.7293   0.3226   0.9799   1
1265.078   0.5828   0.3137   0.9800   1
1265.138   1.3488   0.3673   0.9800   1
1265.198   0.7606   0.3268   0.9801   1
1265.258   0.9366   0.3398   0.9801   1
1265.317   0.6111   0.3154   0.9802   1
1265.377   0.9043   0.3370   0.9802   1
1265.437   0.9047   0.3371   0.9803   1
1265.497   0.7571   0.3259   0.9803   1
1265.557   0.9238   0.3128   0.9804   1
1265.617   0.7556   0.3243   0.9804   1
1265.676   0.9022   0.3364   0.9805   1
1265.736   0.9028   0.3374   0.9805   1
1265.796   0.6371   0.3160   0.9806   1
1265.856   1.0739   0.3478   0.9806   1
1265.916   0.5462   0.3090   0.9806   1
1265.975   0.7736   0.3296   0.9807   1
1266.035   0.6983   0.3246   0.9807   1
1266.095   0.7430   0.3281   0.9808   1
1266.155   0.8708   0.3389   0.9808   1
1266.215   0.6024   0.3194   0.9809   1
1266.275   0.7814   0.3365   0.9809   1
1266.334   0.9534   0.3468   0.9810   1
1266.394   0.8578   0.3380   0.9810   1
1266.454   1.1691   0.3548   0.9810   1
1266.514   0.9831   0.3424   0.9811   1
1266.574   0.6873   0.3199   0.9811   1
1266.633   0.8904   0.3346   0.9812   1
1266.693   0.9777   0.3418   0.9812   1
1266.753   0.9770   0.3412   0.9813   1
1266.813   0.7464   0.3234   0.9813   1
1266.873   0.7478   0.3230   0.9813   1
1266.933   0.9233   0.3364   0.9814   1
1266.992   0.5758   0.3110   0.9814   1
1267.052   0.6915   0.3196   0.9815   1
1267.112   1.0121   0.3433   0.9815   1
1267.172   0.5724   0.3110   0.9816   1
1267.232   0.7477   0.3232   0.9816   1
1267.292   0.7772   0.3270   0.9816   1
1267.351   1.1849   0.3547   0.9817   1
1267.411   0.7183   0.3225   0.9817   1
1267.471   1.0391   0.3447   0.9818   1
1267.531   0.9230   0.3379   0.9818   1
1267.591   0.8366   0.3306   0.9818   1
1267.650   1.1558   0.3543   0.9819   1
1267.710   0.7481   0.3250   0.9819   1
1267.770   0.9216   0.3370   0.9820   1
1267.830   0.7739   0.3256   0.9820   1
1267.890   0.8303   0.3294   0.9820   1
1267.949   0.8296   0.3296   0.9821   1
1268.009   0.7136   0.3219   0.9821   1
1268.069   0.9459   0.3383   0.9822   1
1268.129   0.8868   0.3343   0.9822   1
1268.189   0.5690   0.3110   0.9822   1
1268.249   0.5982   0.3129   0.9823   1
1268.308   0.7735   0.3265   0.9823   1
1268.368   0.7791   0.3271   0.9824   1
1268.428   0.9713   0.3417   0.9824   1
1268.488   0.8776   0.3374   0.9824   1
1268.548   0.9000   0.3429   0.9825   1
1268.608   0.9291   0.3468   0.9825   1
1268.667   0.7930   0.3370   0.9826   1
1268.727   0.9632   0.3462   0.9826   1
1268.787   0.8145   0.3327   0.9826   1
1268.847   0.7042   0.3218   0.9827   1
1268.907   0.7814   0.3273   0.9827   1
1268.966   0.6613   0.3182   0.9827   1
1269.026   0.8892   0.3346   0.9828   1
1269.086   0.8051   0.3300   0.9828   1
1269.146   0.7796   0.3304   0.9829   1
1269.206   0.8490   0.3365   0.9829   1
1269.266   1.1953   0.3622   0.9829   1
1269.325   0.8713   0.3395   0.9830   1
1269.385   0.9101   0.3456   0.9830   1
1269.445   0.6964   0.3295   0.9830   1
1269.505   0.9728   0.3485   0.9831   1
1269.565   1.0429   0.3506   0.9831   1
1269.625   0.7309   0.3277   0.9832   1
1269.684   0.5096   0.3087   0.9832   1
1269.744   0.7105   0.3230   0.9832   1
1269.804   0.8963   0.3352   0.9833   1
1269.864   0.7435   0.3236   0.9833   1
1269.924   1.1777   0.3544   0.9833   1
1269.983   0.7739   0.3276   0.9834   1
1270.043   0.7749   0.3265   0.9834   1
1270.103   0.8352   0.3306   0.9834   1
1270.163   0.9783   0.3414   0.9835   1
1270.223   0.8041   0.3290   0.9835   1
1270.282   1.0069   0.3432   0.9836   1
1270.342   0.8332   0.3310   0.9836   1
1270.402   0.7456   0.3241   0.9836   1
1270.462   0.8324   0.3299   0.9837   1
1270.522   0.8320   0.3303   0.9837   1
1270.582   0.5445   0.3102   0.9837   1
1270.641   1.0642   0.3465   0.9838   1
1270.701   0.8345   0.3321   0.9838   1
1270.761   0.5562   0.3428   0.9838   1
1270.821   0.9243   0.3908   0.9839   1
1270.881   0.7696   0.3758   0.9839   1
1270.941   0.8483   0.3846   0.9839   1
1271.000   0.7703   0.3780   0.9840   1
1271.060   1.0052   0.3971   0.9840   1
1271.120   0.8569   0.3861   0.9840   1
1271.180   0.9959   0.3986   0.9841   1
1271.240   1.0866   0.4067   0.9841   1
1271.299   0.7090   0.3803   0.9841   1
1271.359   0.6913   0.3774   0.9842   1
1271.419   0.4410   0.3502   0.9842   1
1271.479   0.8651   0.3873   0.9842   1
1271.539   0.8917   0.3893   0.9843   1
1271.599   0.5134   0.3573   0.9843   1
1271.658   0.6208   0.3697   0.9843   1
1271.718   1.0819   0.4153   0.9844   1
1271.778   0.8501   0.3987   0.9844   1
1271.838   0.7851   0.3919   0.9844   1
1271.898   0.6708   0.3760   0.9845   1
1271.957   0.7750   0.3830   0.9845   1
1272.017   0.7982   0.3829   0.9845   1
1272.077   0.7751   0.3775   0.9846   1
1272.137   1.0079   0.3986   0.9846   1
1272.197   0.8942   0.3878   0.9846   1
1272.257   0.7311   0.3758   0.9847   1
1272.316   0.4614   0.3503   0.9847   1
1272.376   0.9241   0.3905   0.9847   1
1272.436   1.1167   0.4069   0.9847   1
1272.496   0.5476   0.3589   0.9848   1
1272.556   0.8495   0.3890   0.9848   1
1272.615   0.6879   0.3740   0.9848   1
1272.675   1.0970   0.4099   0.9849   1
1272.735   1.0244   0.4043   0.9849   1
1272.795   0.7021   0.3768   0.9849   1
1272.855   0.4839   0.3533   0.9850   1
1272.915   1.0008   0.4007   0.9850   1
1272.974   1.0748   0.4036   0.9850   1
1273.034   0.6124   0.3648   0.9851   1
1273.094   1.0351   0.3996   0.9851   1
1273.154   0.6480   0.3673   0.9851   1
1273.214   0.8792   0.3868   0.9851   1
1273.273   0.6466   0.3662   0.9852   1
1273.333   0.8377   0.3829   0.9852   1
1273.393   0.7662   0.3788   0.9852   1
1273.453   0.7461   0.3773   0.9853   1
1273.513   0.7397   0.3830   0.9853   1
1273.573   0.9954   0.4112   0.9853   1
1273.632   0.7480   0.3893   0.9854   1
1273.692   1.2992   0.4368   0.9854   1
1273.752   0.7084   0.3809   0.9854   1
1273.812   1.1257   0.4132   0.9854   1
1273.872   0.6649   0.3695   0.9855   1
1273.932   0.9982   0.4868   0.9855   1
1273.991   0.8722   0.4766   0.9855   1
1274.051   0.8742   0.4773   0.9856   1
1274.111   0.5790   0.4441   0.9856   1
1274.171   0.9813   0.4852   0.9856   1
1274.231   0.8752   0.4755   0.9856   1
1274.290   0.8962   0.4827   0.9857   1
1274.350   0.6436   0.4584   0.9857   1
1274.410   1.0546   0.5139   0.9857   1
1274.470   0.6955   0.4712   0.9858   1
1274.530   0.9469   0.4934   0.9858   1
1274.589   0.9032   0.4882   0.9858   1
1274.649   1.2965   0.5288   0.9858   1
1274.709   1.0038   0.4975   0.9859   1
1274.769   0.9837   0.4924   0.9859   1
1274.829   0.5745   0.4425   0.9859   1
1274.889   0.8055   0.4664   0.9859   1
1274.948   1.2104   0.5059   0.9860   1
1275.008   0.7484   0.4615   0.9860   1
1275.068   1.1536   0.5022   0.9860   1
1275.128   1.0998   0.4964   0.9861   1
1275.188   0.7501   0.4606   0.9861   1
1275.248   0.8073   0.4680   0.9861   1
1275.307   0.7497   0.4636   0.9861   1
1275.367   0.6335   0.4501   0.9862   1
1275.427   0.8645   0.4737   0.9862   1
1275.487   0.9201   0.4798   0.9862   1
1275.547   1.2110   0.5060   0.9863   1
1275.606   0.5747   0.4440   0.9863   1
1275.666   1.1527   0.5025   0.9863   1
1275.726   0.6900   0.4553   0.9863   1
1275.786   0.9222   0.6803   0.9864   1
1275.846   0.8056   0.6651   0.9864   1
1275.906   0.9211   0.6805   0.9864   1
1275.965   0.8065   0.6653   0.9865   1
1276.025   0.9216   0.6807   0.9865   1
1276.085   0.3406   0.5869   0.9865   1
1276.145   0.6895   0.6463   0.9866   1
1276.205   0.8067   0.6657   0.9867   1
1276.265   1.2686   0.7268   0.9869   1
1276.324   1.5005   0.7550   0.9873   1
1276.384   0.6875   0.6460   0.9883   1
1276.444   1.2652   0.7270   0.9929   1
